Energy[MeV]
0.214026
0.504399
0.479456
1.2416
0.558
0.896199
8.14237
0.0737168
0.450568
0.836644
2.14847
2.73261
0.969486
1.39931
2.2292
38.0039
269.144
0.442926
0.793027
1.50678
3.00616
3.4283
3.96254
0.526159
0.792735
0.232906
0.432448
1.31439
0.220573
0.410345
0.686926
0.925374
1.26418
0.366299
0.727262
0.758809
4.88153
0.203276
41.5345
1.47339
1.92399
1.99493
2.97538
3.58908
3.98749
64.6011
0.539627
1.55504
1.79452
0.251356
6.0713
0.133737
1.36494
10.8253
72.4847
0.418301
1.19491
1.33156
1.44828
1.89917
2.26368
1.07962
1.09108
0.688506
1.86412
0.969538
4.06683
0.105404
5.68201
0.953449
2.23656
18.1502
27.8004
42.8461
70.449
0.605825
1.09132
1.34484
0.216862
1.48767
1.77056
0.76833
2.86393
0.392955
0.470512
7.20504
53.2387
0.653204
1.36718
1.67943
1.71838
0.801902
51.3712
0.0613856
0.299461
0.836331
1.35895
1.67218
2.10932
2.19802
5.13839
6.46021
0.383936
0.539298
0.293029
0.810919
0.796639
1.78813
1.79933
0.609008
2.77524
4.46876
36.2388
0.311224
0.551525
0.60042
0.64243
1.27973
0.234869
0.11045
264.741
301.953
0.289471
0.620123
1.31011
1.47522
1.91579
2.00983
1.06316
2.81913
3.30963
3.70926
0.165137
6.60149
0.233655
0.279632
0.860233
0.891653
0.970746
0.0199464
1.37842
0.696687
2.56381
0.634633
0.113766
0.483882
1.35944
1.88467
159.61
0.197319
0.4168
0.723373
0.981161
1.74897
1.8017
0.571553
2.60292
2.91312
0.837324
0.656486
0.139968
5.52559
1.33086
90.3778
0.733101
1.26168
138.785
0.267613
0.808846
0.964821
1.69596
2.40971
1.27687
1.30167
0.55599
1.63846
2.03312
2.86066
3.14807
0.600448
3.88019
0.234619
1.41535
0.141187
1.01581
0.375762
1.01211
56.0899
0.228997
42.7981
89.9642
0.831313
0.766706
1.5805
2.40713
0.253593
4.56546
5.35183
7.37642
0.856914
1.06512
1.44526
2.28128
2.4549
2.99821
0.758357
0.249657
1.60724
0.360767
1.08842
1.82294
53.6769
284.677
0.640387
0.595568
1.16741
1.28168
2.12013
1.10637
3.00502
0.202199
3.60813
3.66513
0.127615
0.189289
0.974059
7.29443
12.5053
52.051
0.526104
0.527314
1.089
0.289969
0.667196
1.04224
0.172247
0.154836
2.47519
0.0835002
0.634087
0.63844
0.778753
0.403779
6.16608
6.42256
23.8787
0.0504673
0.801744
10.791
0.260408
1.55986
3.09693
0.18047
0.76798
0.444208
0.654584
0.690728
0.780519
1.02269
1.29558
1.55141
1.829
2.1984
2.43529
2.62718
2.72629
3.59894
3.67943
4.0668
4.31259
4.42511
4.58655
0.749992
6.17012
0.576774
7.36956
7.63053
0.514387
11.3379
0.416587
0.517669
12.6662
32.8171
118.711
0.552269
1.10882
1.16052
1.78338
0.172329
2.0601
2.15362
0.239961
2.63462
2.67283
2.89608
2.89901
3.09972
1.38098
0.288212
5.16127
0.547817
1.96837
1.05842
8.42071
0.103879
0.376505
0.194659
3.71095
0.201403
0.508311
1.54746
2.31217
2.54264
4.41441
0.108215
22.4682
0.29473
0.660931
0.936602
1.81503
2.16249
0.500325
0.607886
10.67
0.266071
0.662853
43.3916
0.0708042
0.61213
1.20806
21.1254
0.487486
0.902429
1.01536
0.206512
1.3284
1.77751
1.93352
1.94341
2.82751
3.43667
0.813806
4.02513
1.13329
4.81202
1.05101
1.47832
6.33798
0.820451
8.98251
0.554198
0.197211
1.18325
0.497383
3.28133
14.0943
0.0153411
0.287211
4.16023
4.20883
5.75816
0.0263917
0.854091
0.219952
17.1085
188.105
230.716
0.53011
1.64575
0.705384
2.32674
2.39294
0.352665
4.04448
0.329512
0.266748
4.24941
1.82584
0.256215
0.796787
1.46288
0.602721
1.25451
9.49882
0.36386
0.659091
1.58399
4.09216
1.25386
1.95861
0.724147
0.977435
1.26884
1.27776
1.39362
1.46016
1.65479
0.069027
0.402425
0.762536
0.104299
1.29929
0.00894275
2.3233
0.394666
0.520136
41.0737
1.12898
1.26795
1.59181
0.240688
2.54666
2.78241
2.75181
0.287638
0.387639
0.932043
1.0427
0.0720516
0.469474
0.953388
89.5786
89.7661
0.325217
0.448089
1.11221
0.417303
1.85413
2.01566
2.30802
0.625037
25.6045
0.265087
0.607832
0.707547
1.05007
2.32364
3.33107
41.2814
0.111702
0.43667
0.956414
2.27575
2.64349
18.2132
0.45964
1.04528
1.10745
1.84887
2.25941
3.32288
0.696971
3.58267
0.45029
4.08379
0.0862212
0.0655704
0.311486
0.478318
1.26634
1.12956
1.42732
2.56122
0.655505
0.768035
0.810718
1.22916
1.80364
1.93475
2.293
2.5036
2.26307
0.276848
7.25306
0.896915
1.08442
1.15699
0.674249
0.340594
0.380147
0.952846
2.5823
0.378579
1.14999
1.52203
1.54889
2.81765
2.99308
3.12216
4.01022
0.142351
0.31683
0.427539
0.604488
0.313427
1.33514
1.48344
1.89609
0.822925
2.61108
4.24151
0.947278
1.01153
0.60314
0.409517
0.452457
0.257496
1.26732
1.24393
0.536426
0.19722
0.780805
0.945795
1.20773
0.148306
0.379946
3.12473
0.722751
392.395
0.812663
0.941556
1.10614
1.12395
1.45357
2.44102
0.494889
1.34635
2.74615
16.6165
38.153
0.0717399
1.80439
2.31675
1.32488
0.275286
0.486592
0.57995
0.722515
0.975548
1.16094
1.30045
1.84679
1.89833
2.09963
2.5114
3.31788
0.300428
4.72991
5.69691
0.476849
0.966002
1.34649
1.41612
0.27921
0.510688
0.589972
2.39858
0.192623
0.462527
0.673755
1.76288
1.74667
2.97646
0.652449
0.261129
18.5116
54.9958
0.117355
1.04787
1.1953
1.78803
2.19245
2.23087
2.54625
5.7731
6.06621
7.31008
0.411045
0.582729
1.12633
1.15016
0.497836
1.58493
0.428276
0.761315
8.18335
0.525141
12.0128
0.53542
0.890452
0.889394
1.2437
1.54057
1.70795
0.45009
2.19458
0.711315
2.40689
2.43521
2.76234
2.97754
0.128905
0.25972
0.262533
0.07593
4.25871
0.187215
0.472974
6.79897
6.90874
7.42258
0.104098
0.462774
0.183453
1.40459
0.272386
1.14451
0.790926
1.35976
16.2589
0.132665
1.95365
15.8829
54.1646
0.238412
0.507971
0.98287
1.92841
2.80235
4.73392
5.61785
90.2112
0.127139
1.45657
0.557291
0.544937
20.6909
38.3508
0.428053
1.3765
1.46509
1.72771
1.96096
2.03881
0.16223
28.8668
0.341344
0.597936
1.04353
1.17514
0.502307
0.132492
1.14238
137.717
0.0941775
0.787237
1.44961
2.04372
2.40932
2.72211
1.0449
0.169499
1.19081
217.208
0.183264
0.316942
0.544026
0.623995
0.714135
1.04463
2.44068
0.774163
3.5638
4.07421
4.20184
0.685673
0.725745
5.89931
1.21872
0.17583
0.140143
0.577434
53.0117
72.4459
0.159815
0.571297
1.0066
1.58817
2.9466
1.22112
0.320295
14.5536
0.696553
0.79081
10.6041
0.872778
1.76128
0.364627
11.6811
0.267971
0.365139
1.38314
1.57319
1.62932
1.71353
2.23365
2.58906
2.5716
3.09807
0.406977
0.972968
0.645696
0.836007
5.09024
7.99894
8.83631
1.94307
9.53455
15.1251
24.4786
1.23328
2.01606
7.51134
41.7732
0.918735
1.08795
0.114605
1.42672
6.73231
79.6173
102.284
0.354124
0.109162
1.8402
2.19578
2.49013
2.9727
3.00107
3.38661
3.35441
4.29996
0.286941
5.81823
1.12587
7.73713
1.1281
7.87932
9.12177
9.95704
0.858002
1.13839
13.8087
8.11026
0.209877
0.978094
1.02632
33.0074
0.790825
1.44365
1.53227
1.97479
2.05032
2.27455
0.452102
0.991004
1.13562
112.573
0.0756135
0.485658
0.989504
1.81106
0.0141152
0.213364
2.39417
3.21833
0.25417
0.0680853
1.70448
153.023
0.415963
3.17881
12.3959
0.402739
1.10161
1.59744
1.7639
3.59013
3.66673
4.02542
0.213556
5.72617
36.7163
37.4517
0.475864
0.573648
0.646427
1.00148
1.69796
1.88713
3.58102
1.10905
1.3283
1.40194
0.169411
0.395285
1.48533
1.45163
0.232748
0.142064
2.73999
3.25928
3.37222
0.544365
1.0716
0.712555
3.77373
0.584145
0.337113
1.30653
4.80963
6.51825
8.2646
0.720718
0.828385
0.360682
0.253862
0.904793
1.07386
0.280491
3.56264
0.5135
4.05781
0.133523
0.314213
0.375626
1.15522
0.12044
0.669646
0.558083
0.680851
1.31925
2.75776
0.302972
1.34832
0.961443
0.380247
0.46493
0.755255
0.537723
0.613639
1.53621
1.77313
1.7243
1.80469
2.48629
2.67349
2.8076
0.719357
1.18254
1.1086
0.70549
1.33339
0.0198109
1.15696
1.60039
0.605539
0.330453
5.07361
62.7392
0.167674
1.01503
1.08768
1.21855
1.25418
1.61879
0.544512
2.25283
0.3132
4.72939
6.20939
0.119947
0.327601
17.7413
66.0658
0.875699
0.301518
1.06085
1.70084
2.07843
2.74352
6.42248
0.0913156
0.660363
0.67204
0.949169
1.01089
1.18211
0.185645
2.48912
2.49219
4.49939
5.09175
8.23072
0.286378
0.755886
0.225787
0.652417
0.443352
0.593585
1.56623
2.0475
2.88488
7.60621
9.75893
100.395
0.307137
0.442668
1.37079
2.16531
2.27451
2.30758
0.548964
4.58483
0.687278
19.2211
0.440463
0.50578
0.828637
1.07076
0.524677
1.67122
1.81956
0.960397
4.56953
3.19719
0.127473
6.8037
0.186599
14.055
81.8789
0.323854
0.399889
0.576047
0.768419
1.10179
1.61276
1.86693
2.67544
0.950606
0.110567
0.764365
0.847741
6.58951
0.174813
0.305764
0.131281
0.625728
4.13922
0.0901227
0.939307
0.339149
4.99186
0.151122
1.22043
0.620901
1.13044
0.878494
0.227148
2.26316
0.207454
0.256494
0.728371
0.547074
1.62873
0.490449
2.14483
0.579605
2.16592
2.24428
0.933058
2.33577
0.425916
0.402954
0.55863
0.990365
1.05097
1.68261
1.23749
2.16435
0.483795
0.685321
2.25535
2.45207
2.49253
2.57883
3.10477
3.43683
4.13083
4.66982
5.18061
1.02013
5.79284
12.4836
17.8838
42.7846
0.250731
0.555102
0.866749
1.02132
2.44447
1.07709
3.61829
0.509026
1.27551
35.2611
0.648432
1.8902
0.301698
0.390567
0.388578
0.508229
0.957443
1.17907
1.61663
0.505223
0.207278
2.74284
2.80078
3.35211
3.25767
3.34095
1.24152
5.08948
0.663041
0.877091
0.68392
7.03724
0.0412002
0.562323
1.07193
8.50888
0.134282
1.32722
1.00872
1.06844
0.242637
1.04231
0.714649
11.3535
0.120765
0.37771
1.60825
0.903252
1.26443
1.3393
1.49645
0.244249
1.82405
1.92988
2.01929
2.26396
0.365593
2.56737
0.625723
2.86867
3.35757
3.82491
0.181202
9.10411
10.8377
12.5484
0.0105029
1.15925
1.27985
1.48659
1.55022
0.463935
0.0592569
0.985913
1.35997
1.88679
0.110214
0.49881
0.579812
1.23727
1.74476
0.437915
5.4955
0.906145
1.4858
1.58812
1.65098
2.84982
3.18299
3.48574
3.86019
4.87462
6.03533
0.314443
0.498339
1.50845
35.2379
46.4862
68.4389
0.175823
0.129101
1.09408
1.11988
1.68858
1.94119
1.89706
2.63688
5.84919
9.90951
11.449
161.8
0.662102
0.73824
1.10557
1.22949
1.58482
1.69056
3.52087
78.0251
87.4678
94.4919
0.264708
0.967823
0.329094
1.98982
0.402504
0.634278
186.691
0.470642
0.511966
0.665043
0.947709
1.47994
0.498809
0.285926
0.324741
3.66073
0.227621
3.87499
0.50949
0.845966
0.553642
0.392839
7.07626
0.0141914
0.52408
0.442813
1.35465
19.2413
0.288292
0.712376
1.04569
0.0938296
0.439884
412.148
0.607379
1.24301
1.35394
1.7301
1.46596
3.59642
3.51555
5.06192
2.6515
1.16747
1.41642
2.22952
476.101
0.773316
0.93994
0.990859
1.39349
1.58001
0.876601
29.0259
0.0948788
0.577326
0.686194
0.704794
4.86699
0.784333
21.7758
49.7118
259.285
0.432636
1.5479
1.96201
0.353524
3.21569
3.97516
0.316079
0.512135
0.757661
1.94137
0.334688
3.53193
0.656879
0.91488
2.15705
5.49964
5.77135
0.248151
0.922144
10.1878
10.818
12.1598
19.1412
0.526342
0.667753
0.677168
0.827201
0.320551
2.30374
21.7432
0.0498841
0.23269
1.71061
1.75765
4.63403
1.37712
46.1305
1.01425
0.0682224
1.03405
11.214
1.48069
0.211671
1.86703
0.055277
0.490406
0.754619
0.981184
1.12874
1.28061
1.47638
0.774978
0.734814
0.169945
3.21344
3.37238
2.54544
0.389304
0.613161
8.09658
0.723373
1.0309
1.1434
0.370914
1.71496
1.22296
1.7879
2.1435
2.2087
0.246326
1.45601
0.324512
5.55295
6.1184
7.44718
9.02242
86.0016
0.0772607
0.19051
0.255976
0.503809
0.556193
0.86036
0.921127
1.17277
1.91854
2.08669
2.74811
3.66581
0.91665
5.78278
6.30868
0.0915807
1.24639
7.88549
7.98887
0.0991104
1.14387
9.21361
10.9585
0.754543
2.06336
0.360824
0.588863
62.634
0.603656
0.996325
0.848618
1.60461
0.791068
0.76087
0.143702
0.46814
1.29266
1.59754
3.22801
3.66346
0.282958
0.481597
6.64184
6.99089
9.20663
0.23781
1.12555
1.19618
1.35566
1.87472
2.82199
0.641169
3.45279
4.12498
0.464203
1.75511
2.5125
1.43851
0.415813
1.34381
6.10287
0.442663
0.700718
4.16336
0.658372
1.1704
0.541346
0.600647
13.1581
0.202829
5.0717
0.295389
1.24588
1.42265
1.99743
2.08047
2.46344
2.50306
0.225386
4.22516
0.422776
4.42183
1.525
6.89341
1.13219
8.32577
9.23489
1.01943
1.19435
96.4759
0.181069
0.515172
1.84689
0.0957354
3.05764
4.45197
0.928513
0.320269
0.623317
139.886
206.186
0.293246
0.603987
0.611671
0.9458
1.28901
0.286987
2.20835
0.457389
2.33877
2.49076
2.76705
2.83906
3.14041
3.21194
0.53632
0.692125
0.698937
5.19611
5.84323
0.186154
1.16095
16.9001
0.934085
0.332938
74.0943
0.0966501
0.723638
1.50786
1.59991
36.3705
172.168
0.28341
0.402986
0.500243
1.01354
1.38128
1.39674
1.69421
2.15259
2.50568
0.409961
0.787708
0.152522
0.473251
6.23536
6.23647
0.761854
0.295977
2.31466
0.402802
11.6168
25.5515
59.0914
155.557
0.0704342
1.99442
2.72264
0.419332
50.2971
0.859274
1.2915
0.222006
0.625144
1.17821
1.47201
1.73315
1.87743
2.42038
0.0499335
0.767212
1.09196
1.191
1.43303
1.50768
1.60609
2.04115
2.71383
0.431997
4.22034
4.93426
6.22411
6.51082
0.393807
0.21545
0.259284
0.244758
0.451505
0.810417
0.907146
1.35558
1.70081
1.95829
2.14047
2.25241
0.151121
4.35927
6.21934
7.11757
148.481
0.481855
1.77951
1.95014
2.23858
349.648
1.03831
1.31174
1.56883
1.58852
2.08028
0.915204
612.924
0.14356
0.492961
0.740987
0.73818
0.772535
0.773415
0.906376
1.31561
1.4705
1.58477
2.222
0.632275
2.74544
0.655651
0.791426
7.2551
9.48643
0.757178
0.758649
14.2409
0.481785
1.17527
1.5248
22.8374
78.4841
0.211234
1.32366
0.321752
0.405927
0.759199
0.784888
0.862371
0.954069
1.46888
1.86755
3.53768
0.079085
0.137214
3.81826
5.4235
0.624215
0.261969
0.732544
22.8092
129.997
0.0831034
0.309493
0.647175
1.18468
1.54005
1.49393
1.74911
0.570574
2.23277
2.51209
3.48199
4.20954
0.308698
0.616741
4.70042
5.4478
0.205612
7.73374
8.39982
9.617
10.958
14.9723
0.279747
1.13414
1.065
1.29822
7.48897
0.471403
0.818155
2.13397
0.720364
0.8874
0.92611
0.196524
0.442875
2.31119
0.284482
0.548513
334.06
0.144853
0.168687
0.442967
0.891628
0.197
2.36257
0.910222
2.02983
0.0711031
3.55429
0.736736
3.72291
0.646613
1.26851
6.18983
6.75098
8.32915
1.51232
8.6469
0.307562
0.462879
0.0608063
0.524277
0.162622
2.04144
1.10279
1.39322
3.87988
0.0909498
0.539822
2.49722
2.4691
3.98209
0.102708
0.168634
0.281505
1.93118
176.889
0.541868
0.588941
1.28296
1.34295
0.738273
2.50104
2.50887
2.53101
2.6191
3.20909
1.01991
0.319614
0.545541
0.612612
4.96541
7.1808
0.685808
2.09255
16.8129
50.6798
0.710453
0.765754
1.1033
2.59708
51.0545
54.5633
0.765063
2.14459
0.356576
0.508986
0.45553
1.41437
1.60959
1.73422
0.602507
0.313886
2.75433
0.23406
1.8264
1.06124
0.366467
2.33179
3.55273
1.7202
1.17775
5.32596
0.319633
0.684384
0.909003
1.37942
2.62694
2.6716
5.00502
58.8076
0.380527
0.925297
1.98881
2.01071
2.31385
2.74852
5.90435
5.9133
6.11992
0.104472
1.8408
2.32337
6.41371
0.145975
0.776325
0.161308
0.546061
0.864158
1.56738
0.295728
0.645957
0.717252
0.957519
0.936108
1.55747
1.71952
0.377669
2.21613
2.2727
2.37673
0.0806868
0.167514
3.27669
3.49549
4.99809
63.3806
0.558372
0.693654
0.565753
1.80488
1.84213
1.75906
0.352172
0.590639
4.11634
0.456525
0.342716
4.32396
0.93715
0.640871
6.70108
0.627349
7.63021
9.42415
0.474804
0.861102
0.138015
3.04151
0.480803
4.43601
14.299
94.0107
0.0459013
0.826322
1.09845
1.31472
1.52528
5.09308
5.49175
231.56
0.359218
0.601539
1.18084
2.88011
507.279
0.182625
0.555447
0.670625
0.683172
0.956058
1.71757
2.42793
3.35187
5.69833
0.998982
5.36428
13.4577
0.14307
1.42817
0.179343
0.2605
0.448866
0.228849
120.522
0.303748
0.940474
1.59004
1.69561
1.81844
1.98183
2.63007
0.322868
3.00355
3.27441
0.552239
7.4981
0.529863
1.09051
0.510208
3.67521
0.223847
0.565302
1.04265
0.245273
2.26536
2.56986
2.67394
0.329263
0.201462
1.42348
12.0816
0.792596
0.618269
0.00358589
0.877387
0.290472
166.711
0.46188
1.16829
1.31669
2.13157
49.8364
0.204595
0.859578
2.05772
2.01377
0.675093
0.232216
0.593357
1.00809
0.693678
0.978958
1.17071
1.49655
0.155719
1.98275
2.53528
2.70093
2.95185
3.10794
0.376453
3.33885
0.829975
4.3761
7.89025
9.36733
0.332097
0.53969
0.502923
0.969184
12.7645
33.0842
51.1305
0.719716
0.992129
1.67732
2.43954
0.554542
0.192325
0.539171
72.7123
0.379546
1.06819
1.23039
1.52317
2.43102
1.15704
4.72726
5.32664
92.1758
189.408
0.269111
0.575375
0.687051
0.815714
0.42542
0.629676
0.216581
3.58111
3.92681
0.105757
0.342201
5.48222
5.61783
6.46066
0.424225
10.1019
11.0236
0.911763
0.21088
1.17869
1.2798
1.82318
1.24962
21.184
113.308
0.283907
1.10789
1.10717
1.09222
1.80969
3.14283
3.88175
0.323675
1.22733
1.84695
1.95728
2.67159
3.3089
3.37079
0.883041
4.04491
0.832094
5.14566
6.40047
0.404982
0.617283
1.36236
1.37317
3.44269
0.459158
0.621216
0.598134
0.72975
0.113898
2.54169
0.728107
1.87352
2.49965
2.74375
0.0786168
0.605832
0.268071
0.525153
0.657043
1.2112
1.33323
1.36992
1.70281
0.426736
2.27712
2.45056
2.85733
2.92094
3.3645
1.3122
1.02723
0.366059
4.22045
4.41928
4.82322
1.52551
1.29441
0.658378
0.279981
10.2334
0.179495
0.169116
0.354183
1.56796
2.52458
0.59141
0.409456
0.455722
1.7345
0.247322
2.43806
1.19691
78.206
0.179704
1.89023
0.660346
0.125942
0.315457
0.681748
37.9629
0.468658
0.851036
1.20721
1.30765
1.46529
1.50074
0.318806
1.67698
2.66013
2.80636
4.96613
4.96889
6.82333
4.32695
10.0786
20.1131
38.0762
233.29
0.577175
0.702355
1.17668
1.37085
1.97993
2.08422
0.16061
1.0579
0.350697
0.57634
7.91113
10.2194
0.588814
1.21498
0.12425
0.56711
1.1277
1.19094
2.05808
0.387135
0.761191
3.82419
3.80195
0.967221
0.855804
1.26897
0.644738
0.106674
8.36106
0.26548
0.846587
12.1652
0.0659741
0.141218
1.28668
0.112015
1.77072
0.243701
0.454054
0.770667
0.815217
1.06937
1.58553
2.43064
0.250076
0.451505
3.34794
0.195412
0.870928
0.682249
7.75501
0.345185
0.478787
0.506316
0.960799
0.548199
1.46157
2.61456
0.0299684
6.12443
7.4281
2.00983
1.13571
0.410466
32.3205
0.15157
0.320453
0.661426
0.417952
49.399
0.164344
0.774786
1.95337
0.198002
4.44242
4.77314
6.13995
0.637779
0.72064
0.906764
10.2629
0.297495
0.61156
0.977727
0.983071
0.188415
0.0653897
0.543736
1.40672
1.57513
1.8217
2.88082
3.64219
1.2753
2.07361
0.465963
0.436204
1.2113
1.52355
1.55247
1.02415
9.88375
16.7525
0.776269
1.92728
2.32562
3.66634
0.95503
160.366
0.748285
0.88157
1.65641
0.426719
0.6306
1.38695
1.55697
2.36493
0.764009
5.90398
0.107916
0.703638
0.778804
0.853504
1.20304
1.32802
1.47612
1.88768
3.03572
3.49798
0.308458
1.13799
0.273561
5.04088
0.93895
1.3754
0.32723
0.82706
1.49356
2.93349
0.928865
0.965514
2.27464
0.832799
0.408061
1.14035
0.668373
3.11326
3.83136
4.05203
14.2897
0.187182
0.383353
0.602583
0.601826
0.17671
1.38454
1.76201
2.01202
0.311107
3.94264
0.707358
0.832199
0.473084
0.592414
0.910058
1.10622
1.50449
2.34051
0.325204
2.93025
0.695126
0.0457513
3.42383
1.69154
0.398302
5.7814
7.39295
0.538002
7.9923
1.11974
8.31605
1.40724
0.404132
1.62649
0.485395
1.93729
0.837621
1.39572
0.223388
0.610624
0.996426
23.4563
0.736851
1.6541
1.96081
0.341266
1.27657
58.6487
83.1401
0.257256
0.693916
1.35273
1.55332
3.39402
3.4708
5.83489
0.159841
1.02987
0.13649
0.704376
0.972739
1.25024
1.34863
1.60135
2.0882
2.1099
0.664218
2.53919
2.60663
0.113845
0.133814
3.88287
3.95352
0.526709
0.646532
4.12367
4.35052
0.646259
5.36031
0.567848
0.0902985
0.429991
0.49269
1.28463
18.9943
44.4395
140.445
0.121631
0.699331
1.0939
1.22644
1.6198
2.59139
1.70701
2.8526
1.09852
0.591306
3.75488
0.509654
4.9111
0.951633
0.597335
7.35727
7.83259
8.04589
0.199827
0.371888
10.0647
0.360516
1.63864
0.636328
1.01909
0.164549
0.6801
61.8197
0.155729
0.727287
2.00429
14.7893
0.0272702
0.514429
0.932676
1.28521
1.71013
2.35585
5.09944
5.94619
0.571165
0.149134
0.255899
0.86501
0.589222
1.02485
1.53463
0.33363
2.66116
1.08455
0.283776
0.443566
0.399755
7.79632
0.416775
0.69907
0.724867
1.5158
1.71621
2.26848
2.34596
1.23175
1.4857
0.497575
6.58159
7.23645
0.522646
1.13745
0.314292
0.190304
0.204349
0.24922
0.402896
0.95196
1.64466
2.77937
3.18124
0.886824
0.603191
0.523122
0.382419
1.03533
0.544908
74.07
0.0655339
0.781054
1.03044
0.21415
2.8507
2.06251
0.0886754
0.886672
1.16345
36.1297
0.115041
0.900501
2.97635
5.79594
0.0523558
0.530314
0.8465
1.64479
2.34172
0.581286
3.29471
1.68298
5.19871
1.04855
0.191096
0.521489
0.775052
0.560199
0.842799
1.38699
0.350504
2.31867
2.45669
0.607958
3.24209
3.11467
0.0449442
1.32926
1.10594
6.4612
0.0711694
0.254975
10.0805
14.3527
56.1112
1.02519
1.30584
0.268199
1.77758
1.93723
7.97001
0.476615
0.931879
1.12282
0.609308
165.494
49.9468
164.746
0.376893
0.48581
1.26996
1.47376
1.48534
0.688138
0.517713
2.28093
0.693836
2.86658
2.93595
0.182693
4.1718
0.705998
5.09418
1.59814
5.76916
6.94677
7.66673
0.8691
98.1878
176.697
0.452253
0.450782
0.876887
1.10917
1.59237
0.402658
2.26661
2.44797
0.782753
0.530954
2.87226
2.87996
0.194434
3.25176
0.247998
5.36288
6.65743
32.7993
101.28
0.440627
0.118444
1.59167
1.97371
2.71248
0.0188016
1.02486
3.69071
0.321369
0.199851
5.443
1.15013
8.72566
0.145358
0.632344
0.099437
0.517541
0.765868
1.27391
0.793654
0.893807
1.33908
1.51086
1.67058
2.1159
3.44555
0.165252
0.849585
1.92283
0.186531
0.218751
0.706715
1.70225
1.94249
0.431456
0.189259
2.99907
0.398348
0.472644
1.00776
2.11193
2.14988
23.6459
0.545016
0.710872
0.872503
0.972371
1.00088
1.01573
2.0332
2.66593
0.449852
1.13226
1.46959
0.557322
6.37344
8.2953
0.307514
0.628694
0.838707
0.937777
1.65353
1.64876
0.81359
0.339739
2.79447
2.88225
3.01611
0.215116
4.48764
5.00756
1.1257
1.32345
0.158325
0.26781
0.418649
0.327337
18.5748
193.676
0.257413
0.370142
0.812186
1.60648
1.79032
1.73975
2.3839
0.199833
5.88251
10.103
0.414773
0.614003
0.307802
0.949826
1.22902
1.34517
1.34298
1.51132
1.78252
2.17529
2.20297
2.29986
2.6023
0.225105
0.180472
0.275904
0.268531
4.97504
8.4132
9.12236
2.84995
37.9013
0.283032
0.40815
0.50844
0.76133
0.87566
1.75856
2.39253
2.58301
2.89952
0.771489
3.38988
3.57999
0.99046
0.136675
0.983982
1.02695
1.16648
0.694213
1.48836
2.2365
3.06768
3.14199
0.351354
3.68476
0.320943
4.69613
0.626724
1.51276
0.819067
9.44586
0.259576
0.397826
40.6497
0.941501
1.02963
1.45216
1.7084
1.79032
1.83553
0.487628
0.467574
0.10897
2.77419
3.19443
0.566939
4.65067
4.71167
5.93837
7.45067
40.9507
0.408015
1.71173
1.91804
2.29011
0.0972998
0.296336
2.69706
2.62254
1.12158
0.746828
0.471551
80.6942
194.262
0.0707366
0.534842
0.729515
0.853973
0.929159
1.24152
1.3689
1.02772
0.22793
1.34723
1.66254
2.15035
0.763828
2.28235
2.42738
4.54657
0.226053
8.03401
0.0756176
2.20032
0.270393
0.356563
35.6347
112.206
364.976
0.332297
0.776063
0.779178
0.949729
1.19108
1.3667
1.40709
1.66002
2.34435
3.10844
0.753719
3.91253
0.469926
0.273111
0.772777
0.756059
0.864185
0.151342
1.20022
10.1099
11.5295
16.3713
0.162712
0.202182
1.76913
0.121869
0.718802
4.6361
42.2078
0.168818
0.400252
0.278714
0.992804
2.30566
0.269136
94.5709
0.146013
0.40952
0.962475
0.239178
2.96939
0.217194
12.1714
556.764
0.82251
1.03086
1.25753
1.55068
1.79992
2.31129
0.39505
2.59887
0.118377
3.1091
3.37508
4.04468
0.156268
0.445446
1.29758
4.63892
7.28691
11.5974
0.0151271
1.63632
0.22916
1.04517
27.3934
0.371296
0.443081
0.760598
2.02124
2.88137
3.37756
0.826113
8.97556
0.237198
0.424847
0.989226
1.10699
1.99713
2.09577
2.14261
0.151555
1.60636
2.06007
2.02028
3.32188
0.405189
0.911718
1.62513
1.79334
2.73931
0.70273
0.917638
1.61026
2.15191
0.778995
1.06049
0.495921
1.54871
0.863989
0.264547
0.590914
0.123202
1.19748
4.3252
0.352236
0.966177
1.64856
0.197728
5.39395
8.32258
1.10141
1.15623
1.1642
1.31155
1.29957
0.261714
0.323922
2.73891
0.582556
3.37291
3.75038
0.539877
0.742512
4.47755
0.463358
0.595195
0.313799
9.76533
10.1553
0.322433
0.629274
0.0949965
169.926
0.100935
0.74712
1.29479
1.68697
2.87214
1.02367
0.844774
0.0639011
0.119474
2.29802
2.44258
0.316455
5.48403
0.467569
0.728186
1.29067
0.98612
1.05031
1.13716
1.76165
2.55232
0.184816
3.09956
86.481
484.414
0.343348
0.584549
1.29335
1.51676
1.68559
0.409268
4.72438
16.5379
0.341989
0.679708
0.83109
1.08684
2.30365
2.69313
0.214094
4.07192
3.93703
420.108
0.180221
0.891298
0.264117
0.126295
0.0111678
0.187967
0.264289
1.29649
5.61047
0.39963
0.0186998
0.616085
435.195
0.100316
1.02472
2.54788
2.69898
0.848853
3.44348
0.797865
0.757247
10.0526
0.461415
1.32528
1.30806
1.50529
1.71378
1.76415
2.16578
2.2186
2.58294
2.90892
0.178745
3.6918
0.978528
5.45511
7.47093
8.18149
14.9972
30.0827
51.0328
0.128348
0.729173
1.46955
1.19259
1.1928
2.32343
0.837751
1.50975
1.5353
2.00764
2.12578
2.1565
2.25312
2.23229
2.31205
2.35544
3.3107
3.51903
3.86914
0.612967
4.04302
4.33834
4.55943
5.63551
5.76189
1.14598
9.45049
6.25221
0.129242
2.38592
0.613804
1.68604
5.15595
99.7726
0.542551
34.2767
0.0958493
0.173517
1.03841
1.37561
0.343216
3.8275
0.118217
0.643888
2.71191
0.161224
1.0144
1.30541
2.03642
2.39114
0.904597
0.969889
1.01757
1.09118
1.18889
1.40618
1.66551
2.12297
2.11861
2.16879
2.34281
0.494634
2.51612
2.89731
3.1264
3.09897
0.334431
4.00468
1.27944
2.73797
9.6053
0.0726082
0.191146
0.184639
0.61268
3.22608
64.5696
1.26755
1.58355
1.64876
1.93774
0.173573
2.38332
2.87979
2.96624
3.15442
0.55473
6.22825
0.721733
0.118348
0.349088
0.929078
1.01855
1.20324
1.492
1.53623
0.263278
1.69725
1.69782
1.83385
0.175747
0.595677
0.730668
4.57077
1.24809
0.712339
1.31143
1.30282
0.437772
0.898638
1.27747
2.51629
1.02397
1.14371
2.10228
389.967
0.222266
0.797641
0.137855
1.38171
1.63048
0.713972
2.12779
3.30764
0.118395
0.0770904
3.56654
0.504904
10.8091
29.2814
0.256538
0.582037
0.812667
1.71964
1.96541
2.29845
2.45119
3.52619
3.84984
4.4501
0.317023
1.94281
0.423039
0.810985
0.835129
0.997296
1.55204
2.0516
0.471965
3.03992
0.415359
3.23582
0.223508
0.1724
1.09268
5.05688
0.67872
0.712697
0.379192
0.748184
0.872288
8.51449
9.65351
9.8917
11.9631
0.988458
1.08749
0.284472
0.800828
0.0216272
0.37323
0.578298
1.27915
0.166012
0.404726
0.389549
1.17338
0.289111
0.894977
2.66875
3.54724
0.777095
0.245892
1.41558
0.774897
0.183625
0.576707
0.197241
1.39066
1.71532
2.62673
0.192189
3.108
0.612805
5.00056
6.42516
8.374
1.32966
9.76831
10.6863
11.7195
12.8945
18.734
68.4507
0.817756
0.870284
1.21246
1.53698
1.56519
0.699415
1.60238
2.1997
2.65695
2.79508
0.744112
0.420727
5.29411
0.880078
6.0571
7.67194
9.54808
20.7688
26.285
40.6169
51.8378
0.725111
1.01418
29.3276
44.0128
49.847
0.16943
0.4136
0.0254013
0.23489
309.892
363.701
0.604366
0.293697
1.14601
0.468446
1.31476
2.26914
2.5253
0.494893
4.31403
0.316774
1.40288
5.28212
0.543326
6.79674
1.4115
7.46719
8.97448
9.32242
0.358137
0.693202
1.06399
1.27296
340.754
0.551424
0.734544
1.05823
1.08857
1.15049
0.33408
0.455806
2.54819
3.07612
3.25092
3.2142
0.53171
6.32974
1.18292
12.6116
0.217274
1.00963
1.49621
2.19196
3.48485
7.57717
61.2932
133.057
0.0897332
0.114443
1.06325
1.08873
3.29745
0.358755
0.474519
1.00801
0.530582
0.802071
1.01667
0.606296
0.791516
0.825719
1.2201
1.56789
2.07541
2.10022
0.346723
2.41415
3.20614
3.70447
3.77804
3.94438
4.37789
0.969792
5.28856
1.05916
0.480235
1.42244
0.982548
1.08178
1.06661
1.74646
0.253008
0.527127
1.22217
1.73857
1.95226
0.244626
0.557384
0.549747
1.94933
0.898259
1.16485
1.67956
1.55617
1.83196
1.86275
1.8952
1.97102
1.28508
11.8592
0.522342
0.563149
0.467207
4.59343
70.1161
115.68
0.0596736
0.498371
1.60744
1.87834
0.553533
2.14074
0.913699
2.68733
2.90775
0.551041
2.96174
0.194943
1.44508
1.54234
7.81357
1.82502
0.51815
0.995744
12.4077
6.69843
21.0433
0.298756
0.586317
1.32365
1.47886
2.1844
2.27986
2.47511
3.4842
0.309151
4.62142
1.04714
5.22095
0.302098
0.130717
10.8703
0.377091
1.41617
0.652947
1.38791
1.56262
2.73242
5.11289
6.26901
0.765979
2.96654
96.528
0.61607
1.24521
1.6154
1.62932
1.69691
0.225554
2.60196
1.78402
0.121606
0.657644
50.2169
216.357
0.289909
0.716024
0.803871
0.942389
1.224
1.8599
1.94711
3.10842
0.753117
3.9519
0.714926
6.2037
1.06101
7.90747
142.222
0.158573
0.190178
0.772286
3.26285
6.40922
0.211164
0.375062
0.705417
0.821205
1.0717
1.96546
270
0.351601
0.495542
0.729957
0.589867
1.02374
8.15557
1.48384
2.65603
0.557295
0.931135
0.962126
1.42054
0.5052
1.68708
1.65416
0.38674
2.11499
2.84862
0.92728
4.04819
0.283236
0.325481
0.176884
0.143433
0.444447
0.129112
2.8507
1.55665
0.0700522
0.886214
0.501235
0.564114
0.063158
1.91157
0.269266
1.1984
0.474139
0.617189
0.390702
2.03148
1.60744
30.8193
0.235885
157.502
0.880726
2.1264
0.101138
0.815012
0.407603
0.640356
1.11269
1.26651
1.64064
0.725842
3.85273
5.88393
0.631877
8.60106
15.741
0.0608147
0.830311
1.05533
0.152341
0.72609
0.857971
1.44425
0.420965
1.96365
0.307454
20.289
0.151096
0.507961
0.70268
0.805403
1.06768
1.5358
1.83454
1.99978
2.18013
0.768947
0.514068
2.31123
2.9902
3.2639
0.666425
5.24751
0.473108
3.38879
0.200119
1.63976
11.5248
0.0625072
0.123876
0.0694483
0.840761
0.847537
0.031926
0.153545
0.235061
0.601656
3.40638
101.972
0.0538856
0.56668
1.16277
1.28429
1.50727
2.4141
2.36704
0.972728
4.01102
4.26187
11.5352
0.105949
0.291595
0.991637
1.15697
19.1547
0.0641152
0.768828
1.08
1.94547
2.5843
0.20946
5.35889
0.456933
1.45674
1.70238
2.31461
2.79278
0.100151
14.672
0.226202
1.28287
0.247029
0.279324
0.55667
0.815469
2.88254
0.100559
1.84935
1.95455
2.09293
3.19599
6.00221
0.610208
0.330564
30.5289
0.579077
0.876749
1.22231
1.62859
0.372866
4.92057
86.2329
0.26506
0.695204
0.942192
1.04271
1.3559
1.59283
1.6267
0.136138
58.6258
208.786
0.102402
0.497361
0.779526
1.55662
3.46067
9.01917
21.9955
38.1812
368.427
1.0652
1.25625
1.96202
2.01881
0.410141
2.26864
0.408014
3.20093
0.600528
3.38698
3.81758
0.500649
9.55892
1.07819
1.30563
1.49473
1.93115
2.35833
0.35931
3.90765
0.663639
47.2968
9.79649
5.2537
2.25344
73.625
171.465
0.221113
0.359992
0.608292
0.152818
0.672248
0.739193
0.809836
1.19368
1.47694
3.35631
1.41263
0.317192
1.38044
1.9075
2.60795
4.07199
1.92373
0.561724
0.207448
0.629459
2.1086
0.499619
0.323873
0.757243
10.7629
0.30147
0.874875
0.863999
0.707182
0.97182
1.96341
2.01723
0.748959
4.58285
0.942438
1.43255
2.99905
2.69435
1.33493
7.83399
120.803
0.275221
2.18305
0.157642
0.650818
82.4838
0.231097
0.218901
0.638456
0.980589
1.42927
0.0768914
2.05188
0.786653
0.789721
0.632755
4.8464
5.56391
2.32203
90.9538
1.13581
1.88567
1.92922
1.95768
2.37071
2.77751
0.454676
0.12442
29.7898
0.258137
0.965826
0.671888
1.43916
1.48059
1.95675
1.95631
2.01034
2.09154
2.42259
0.481949
2.59482
2.98877
4.09618
7.23744
0.499092
0.124375
0.569715
1.44117
0.613062
1.09068
2.62393
140.052
0.589426
0.674908
1.22159
1.2939
1.86762
2.28895
3.00515
3.1271
0.696937
4.33682
4.73105
0.700568
0.300635
1.20237
10.6567
45.2944
1.28531
88.6235
1.01925
1.03348
1.15531
1.98849
0.322574
0.749665
0.119364
0.135188
2.33968
0.575391
0.536165
0.82166
2.00246
2.49184
0.774102
45.5895
67.7313
110.947
256.937
0.5088
0.567413
0.876311
0.891637
1.63021
1.66532
2.42135
2.64709
0.0950007
2.68589
3.27158
3.68483
1.32527
5.19568
5.52377
0.515822
6.36252
7.24781
0.995256
8.2339
0.164954
0.283541
13.2018
14.9972
0.138813
1.34263
1.50741
0.097381
0.161237
0.684922
0.210862
0.412649
1.45206
0.542579
2.20145
2.99483
3.5919
4.58852
7.4172
0.258462
1.05051
1.19082
0.408442
0.0963837
0.38337
1.46169
29.7672
0.709229
0.782593
0.959621
1.20734
2.34209
1.46783
1.82758
0.46506
35.8445
0.0723746
0.5216
0.857691
1.73379
3.32735
53.3739
0.896655
1.77125
0.731753
0.38976
0.728407
0.779233
0.800154
1.27958
1.59567
1.95033
0.334945
10.2785
0.997956
1.30021
2.10589
2.46172
4.13779
0.180992
0.104771
0.767485
0.0946737
1.6655
0.201053
0.245485
0.583988
0.686745
0.849323
1.04509
0.155562
1.44353
1.59594
1.56325
0.274616
1.81116
1.80587
1.85185
2.74175
0.893738
3.52578
1.33823
0.195228
0.380731
0.852157
0.194965
0.770763
0.291756
1.28795
4.74951
0.137255
2.08302
2.93925
51.9402
0.0735195
0.802171
0.998799
0.304329
1.5211
1.72993
1.93116
2.0351
2.05018
2.47652
0.369224
3.01785
3.10855
3.10746
3.2519
3.34708
0.775824
3.5849
4.04374
0.869893
0.888136
0.608474
6.0066
6.45585
0.128999
7.39902
42.2234
0.137734
0.224075
1.38817
24.9374
140.906
0.428254
0.503085
0.712215
0.946107
1.06566
0.750766
2.31938
0.472061
2.70867
3.20807
3.46204
0.479495
4.91243
6.51945
1.06161
0.0195872
1.91422
9.62959
1.94969
2.19769
4.78994
19.3047
0.430062
0.639827
0.774098
1.19597
1.32682
1.66711
0.22377
2.17523
2.22128
3.24429
0.280998
4.72641
0.582846
0.473045
0.743279
1.27328
8.59542
9.78993
0.0910953
0.198343
0.493166
0.259665
81.7386
139.384
0.105363
0.670939
1.37874
2.75456
27.0423
0.081784
0.701443
0.90003
1.86038
2.28781
2.95096
1.45126
0.539343
0.780321
0.892991
0.0320193
1.07557
1.78261
3.09593
88.0067
0.611921
0.795841
1.37147
1.47543
0.224588
0.554556
1.68483
2.53549
2.60685
4.39012
18.3815
333.42
0.299298
1.11064
1.4247
1.43244
1.82285
2.389
0.257534
0.244938
1.09908
3.5167
0.0472394
1.18225
4.22061
0.299645
0.21963
6.99856
15.0891
16.3839
1.18885
1.913
27.091
1.07636
0.321938
0.447071
0.497488
1.49214
0.182463
0.33287
0.425231
1.78799
0.61379
0.131735
0.0862232
1.79941
3.09537
0.501822
0.514563
1.22301
0.733632
0.220728
2.83492
3.12003
3.13548
3.48094
4.00844
5.00149
5.76808
5.73751
7.93118
1.27618
10.7079
0.317116
0.210257
0.345903
1.7102
0.375461
0.913687
1.4529
0.0971924
13.5326
22.8623
26.6586
0.057935
0.574072
0.77795
2.40703
3.04123
3.36987
7.34931
7.66019
0.139212
0.478544
0.722937
0.688369
0.958925
0.966671
1.13334
1.95639
1.98593
2.01376
2.99522
3.00388
3.60503
4.06078
0.345449
0.359037
8.29288
0.0608965
0.179061
0.117436
0.181804
0.58924
0.769954
0.867768
0.925157
1.20788
1.92927
0.481936
2.15385
2.21101
2.46622
2.74796
3.12822
0.850741
3.4448
1.57539
6.35331
0.342225
0.711286
0.195859
147.921
0.39457
0.646261
1.00006
1.48111
1.85885
2.35054
0.166541
83.0766
0.30722
0.79024
0.845495
1.78572
1.88617
2.50961
0.707611
2.64147
3.97113
4.02157
3.92314
1.98094
0.0501693
0.375145
1.08047
0.520928
0.879179
0.323167
0.422677
20.9108
64.3661
0.188267
0.622505
0.818993
1.01145
1.06467
1.11946
1.31489
3.12667
1.16201
1.14
0.
1.73076
0.50498
0.690893
12.7339
0.135028
0.662717
1.9665
0.58935
0.270494
36.0231
0.241549
0.416479
0.17083
2.05567
3.45935
3.51591
3.56878
3.80998
0.87897
0.431501
1.01021
1.16251
24.2
0.706722
0.953636
1.01958
1.05786
139.752
0.449218
0.653942
0.982128
1.0214
1.30278
82.2157
1.02013
0.109271
0.214133
0.756755
1.05255
1.63165
1.89563
2.09241
2.17326
0.384179
2.36416
3.03765
5.36002
0.682828
0.17306
8.80177
0.76009
0.681388
1.1596
2.64225
0.195157
4.29759
1.04908
0.55233
11.6393
0.691747
1.03309
1.75212
0.138002
0.233777
0.324928
2.16768
24.7159
0.0245411
0.0584953
0.183484
0.556785
0.826264
1.13279
1.36732
1.66144
2.35121
0.280144
3.05048
0.497337
3.94073
0.114314
0.464869
3.62454
1.14524
9.08877
36.147
55.4335
0.292402
0.324104
0.703446
0.754695
0.269029
0.135603
0.289214
0.38014
93.1219
0.130121
0.175977
0.261716
0.87511
1.01256
0.673988
52.7717
121.313
0.0926697
0.921201
1.44434
1.52995
1.62139
2.01497
0.71467
2.48627
2.73951
0.333748
0.832903
3.48719
0.378373
0.246928
3.94115
4.08185
0.442804
0.92996
0.658506
1.02311
0.075092
0.948262
11.9086
0.836544
1.32147
0.137751
0.269891
0.803373
0.854135
3.60482
122.43
0.255922
0.314821
0.810183
1.46587
2.5937
3.39786
5.42301
7.50974
0.450998
0.478865
1.52677
1.60692
2.69812
15.9089
0.058773
0.182801
0.4163
0.652668
0.771307
1.05113
1.58352
1.60233
1.71746
1.89431
0.605859
2.18755
2.61308
3.00286
3.01309
0.489317
8.07033
10.9808
0.0427345
0.494458
0.85191
1.28774
0.722375
39.2471
62.8555
0.530938
0.847661
0.973688
1.10723
0.276323
2.56504
0.208285
0.103638
4.0395
0.0564526
0.620297
5.17738
6.27084
7.07275
1.63098
2.23857
8.86361
10.2237
12.2695
0.339631
1.07956
1.11873
21.5486
0.176929
0.199835
0.325053
0.71482
0.423219
1.7632
232.587
0.117296
0.426254
0.548925
0.732065
1.13901
1.36152
1.83816
7.1043
72.9771
0.511421
0.524225
0.503071
0.854459
1.20347
1.32111
1.32572
1.40809
1.80745
1.98094
0.355055
4.5504
4.6787
4.8008
0.172015
2.56952
0.139832
0.579117
11.6441
0.105224
0.746289
9.41749
0.394356
0.609059
0.0615688
40.504
131.033
1.50776
1.53219
1.86584
1.92498
1.97371
0.265128
0.812131
3.45883
0.169244
2.38671
0.376869
6.31645
12.4738
1.00335
1.39648
42.4964
48.4757
0.142698
1.44511
0.939208
153.465
0.921883
0.180423
1.8279
0.115506
0.847577
74.2814
94.8278
0.64439
0.775809
0.875014
1.01131
2.33602
2.41644
29.2636
1.02255
2.54663
0.376384
0.799331
0.0409708
0.978822
1.47907
0.0783279
1.96467
0.553687
3.00748
0.363399
0.603236
0.281645
0.35488
5.74877
0.226527
10.4755
0.31642
0.273658
0.752615
1.19728
2.28153
0.14366
0.138821
0.880126
0.928574
1.21756
1.41366
1.77826
1.10168
3.19362
1.02142
1.05301
0.626759
127.436
0.424309
0.305624
2.1624
2.5481
0.167884
0.522469
0.530433
0.166965
1.09851
1.33143
0.599676
0.00737156
3.33714
3.77831
0.284743
0.516646
0.251447
0.7246
0.830968
0.175975
3.93567
0.686904
10.6529
48.5717
53.2431
0.116286
0.304868
0.543049
1.10462
0.423142
1.63346
2.1409
2.76585
3.19607
3.72221
0.64279
1.17976
5.46836
5.96105
0.525198
8.40838
180.384
1.02654
1.08972
1.48629
0.49436
2.09636
2.04379
2.23503
2.27194
2.43031
1.00359
0.932366
0.539365
4.06672
4.37424
4.50555
4.95389
5.91655
7.04853
10.7117
0.371006
0.713671
0.297048
0.457343
1.92365
0.319509
1.12029
0.406789
8.66248
0.183971
1.43135
0.203871
0.309488
0.32742
0.133004
2.09117
4.3626
54.5706
0.697017
1.05122
1.18595
1.40083
0.0951975
0.112573
0.26558
0.578185
1.44553
0.105114
0.23425
0.81931
0.840337
1.21523
0.68895
2.30539
0.486153
0.852822
0.886498
0.678072
7.9978
24.3586
0.338573
0.70403
0.955078
1.10182
0.414095
2.69127
2.68095
3.51471
4.11899
1.21133
5.50704
7.56789
43.6756
56.3958
0.834428
1.23413
1.50838
2.57722
0.399399
0.765601
0.44403
3.37456
3.40414
0.850618
4.5211
0.670285
6.02578
0.152162
1.48853
0.896672
45.9342
69.0722
0.0664908
0.750562
0.874881
0.219888
1.46396
1.5454
2.52514
2.73515
3.29533
0.445312
0.609985
0.523018
7.5148
0.840965
49.7848
0.445843
1.16316
2.37151
0.354296
4.04915
0.674574
5.07714
0.570248
2.02368
21.3916
48.4697
0.791933
0.885948
1.27965
2.29095
2.29214
2.39649
2.43015
2.60235
3.50832
3.60578
1.34945
0.130396
5.25441
1.53207
6.57239
3.06972
0.318223
12.6991
0.114108
1.00996
1.47942
0.407372
0.282225
0.435621
2.47265
3.12202
0.906912
0.307074
0.662179
0.226162
0.868325
0.965285
0.416782
1.35362
1.84823
2.1747
2.23624
1.42279
4.17791
4.61306
5.35437
0.0407619
1.07235
10.3577
0.224645
0.730919
0.0926688
0.579319
0.660591
0.784254
1.43348
1.46606
1.43909
0.585244
212.725
0.501446
1.68658
1.70668
0.437775
0.688733
10.9442
0.145493
0.749161
2.17407
0.451127
0.542572
56.3319
0.168213
0.630538
0.729281
0.772431
0.872192
0.0518016
0.458716
2.02942
2.4286
2.70001
1.06415
2.77528
0.714277
0.341013
4.92204
1.1205
5.53465
1.96289
1.00895
1.91054
0.410614
1.99578
2.6633
6.88904
0.392553
1.09739
1.22254
1.24137
1.34932
0.242041
2.91405
2.98948
3.56718
0.577142
3.90464
4.1743
1.66479
0.35455
0.348335
0.708575
0.910581
0.9986
2.00646
1.98394
0.232342
0.345327
1.07117
110.961
0.0481043
0.407327
1.10928
1.70848
3.7106
0.860711
0.8781
0.992625
224.771
0.99206
0.950728
0.359964
1.15113
1.5999
1.64524
1.7506
1.77542
1.04612
0.736006
2.57696
0.667385
0.385886
0.884627
6.57251
0.515264
7.41181
0.0662132
1.4784
12.2606
1.07647
3.22094
0.687023
1.03251
0.691344
1.04085
0.59355
0.605189
1.06071
0.424968
0.220163
0.562212
0.733103
120.886
199.878
0.272609
0.365236
3.16273
2.02106
3.85473
4.30078
5.78556
0.578559
0.44633
0.0889283
0.202332
0.590894
0.470712
0.992258
1.06713
1.07597
1.0989
1.21184
1.61991
1.90466
2.16072
2.39328
0.434008
4.07354
0.86273
2.76684
0.477521
0.400861
9.08938
0.173188
0.667179
0.640891
0.495676
0.61353
0.686271
0.926664
1.08061
1.09601
1.33658
1.34397
1.52439
1.68057
1.70569
2.49025
2.51653
2.61077
2.77217
3.27174
0.133032
4.61283
4.70345
6.66324
1.15284
1.12158
16.444
18.098
20.3599
0.184664
0.605309
18.644
90.2881
0.400544
0.164654
0.408271
0.915933
0.985166
1.21907
1.72715
1.83236
2.02692
8.20725
0.192602
0.607401
0.696627
0.724014
0.813059
1.09904
1.05066
1.27223
0.274794
0.129087
0.252224
0.85761
4.53372
0.100173
5.96808
1.62425
85.8755
0.0960409
0.219456
0.42373
1.70208
0.172745
0.531601
0.688926
2.20694
1.6847
0.471661
0.701847
1.3164
1.4657
1.63244
0.934625
1.8782
2.31441
0.814702
2.74199
2.95214
0.534488
4.9577
4.99551
0.698511
12.5642
1.08898
1.1229
0.440586
0.964754
2.62438
0.154017
0.0910208
0.19472
0.200343
1.76579
1.77816
2.60837
3.20607
503.424
0.352986
1.14279
3.56088
0.92159
5.86189
0.382139
0.390032
0.546966
0.634876
0.655891
0.876421
1.03685
1.04568
1.44397
1.52234
0.638753
1.60726
1.7092
2.6277
0.320246
3.37605
4.48832
1.82427
0.587694
0.235993
2.88917
0.187792
1.24882
10.4414
12.1296
16.4595
0.478736
0.650226
1.17577
1.94022
2.82583
3.69306
6.15886
188.236
0.350488
1.47652
0.181559
2.46107
0.313822
93.823
0.584884
0.73115
0.97803
1.17415
1.45705
1.59345
2.15893
20.225
1.04184
1.72857
0.622933
3.30924
6.82769
0.955361
1.15605
3.85514
0.410206
0.382788
0.530184
0.555164
1.15672
1.29455
0.244323
0.606954
2.75813
0.540316
4.37415
0.871766
1.80498
5.98906
6.16176
0.830938
0.96324
0.688625
3.3684
11.3925
12.9134
6.32511
20.3969
0.133949
0.925211
1.21733
1.31449
1.553
1.56604
3.51677
4.48287
5.05609
0.621012
8.93934
0.795674
1.15402
1.20583
0.30064
1.59751
1.68255
0.443512
2.39859
0.669207
2.95455
0.486211
0.959441
3.92056
0.179636
0.685695
1.2551
0.361712
0.151049
1.79813
0.057262
0.408551
0.740578
0.897948
2.7599
1.59126
0.0849629
0.423113
0.411443
0.583421
0.717157
2.00467
0.447428
6.51074
41.5028
59.6571
0.573443
0.79402
1.03862
1.56039
1.57853
1.69687
1.74528
2.00486
2.4861
0.260365
3.10304
3.44255
0.594234
0.690036
3.94756
0.584124
0.179078
5.27105
0.176062
0.484996
1.09669
10.1521
0.625419
0.680975
1.0321
1.01898
0.257337
3.85314
4.87671
33.3972
270.582
0.254084
0.909208
1.36373
2.3472
3.18738
0.934686
0.152209
5.06364
6.11954
8.80447
72.9559
0.205452
0.388025
1.63205
1.64649
0.784797
2.47448
0.733753
2.66614
2.83717
2.95951
3.12064
3.86041
0.627084
0.617705
1.32188
5.37958
6.2252
0.961337
0.201214
0.18412
0.975766
8.97702
9.28266
0.230834
1.49867
12.1021
14.4454
0.281637
1.80798
16.0426
0.916361
9.5799
22.9834
28.5705
52.3675
0.355274
0.217802
0.547617
2.79101
7.80291
80.1365
3.23902
0.255309
0.283679
0.369085
0.565057
0.879458
4.22773
0.126136
0.881104
1.124
1.1.30964
3.33965
0.204376
18.5041
0.104147
0.382726
0.0912671
1.49928
0.244683
1.96158
1.95511
2.02913
0.0981306
2.13783
1.80434
0.191483
6.45773
0.886742
0.64619
0.687175
1.3063
0.144987
0.40441
0.168269
0.436447
1.65705
1.96022
6.46031
0.85598
0.334257
1.17724
2.25331
207.863
0.17585
0.524632
1.26037
1.53963
0.0276554
1.77363
2.15432
2.18707
2.92021
2.93016
3.8012
3.85624
1.14209
0.84676
4.33437
0.915816
6.61079
6.61292
0.973958
5.35486
0.103278
0.822454
8.74649
0.117894
0.1917
32.0191
0.222168
0.372912
1.16855
1.17326
1.20096
1.46739
1.089
2.00925
93.0311
227.665
0.125178
0.171371
0.266407
1.37608
0.314568
2.28647
3.41032
4.3703
0.888106
0.540883
11.932
39.8232
49.4202
0.0731126
0.208767
94.084
0.719876
0.935321
1.62981
1.70236
2.38781
1.00902
3.0165
4.10443
7.30549
0.894612
1.01515
1.20852
29.8472
215.31
0.471458
0.299935
0.0915258
0.498341
0.814984
0.952945
1.3794
1.68324
1.77155
0.74394
3.37832
0.699825
3.73005
4.31619
0.589063
5.13862
10.1446
0.159222
2.52755
0.681863
0.875167
21.371
145.077
0.218723
1.40372
0.480581
2.18423
2.67435
0.552319
0.694865
0.805355
0.122969
26.5056
59.6387
1.10405
1.5984
2.02275
70.8465
250.623
372.685
0.935099
1.03784
1.19242
1.21464
1.37995
1.89047
0.227949
2.35158
2.34899
2.90144
2.96582
0.105415
5.03905
5.17688
5.50997
5.66245
6.5141
2.58826
8.58183
21.1728
0.53426
0.834721
1.07138
0.094721
32.9433
0.845148
1.1468
1.87387
3.25583
0.729413
0.839493
0.369795
0.718473
0.818369
0.561752
274.03
0.258037
0.247952
0.33238
0.868309
1.24047
1.67723
0.159925
2.98284
0.298068
4.16488
0.612635
5.34902
10.6596
30.2066
36.1844
0.493118
1.08357
1.41681
1.46987
1.93752
5.51172
42.5771
0.295931
1.11442
1.76822
1.92789
2.07741
2.47532
0.493433
3.52354
3.84192
4.10893
4.36067
0.828124
1.07726
0.764206
1.29627
0.652446
7.78541
8.01235
180.646
0.714774
0.872588
1.38053
2.12055
111.071
2.35382
0.68277
1.17865
0.566638
0.322319
0.92097
0.542444
0.786747
1.39857
0.138466
1.52726
0.45635
1.13594
7.70377
0.0964719
0.301196
1.02808
0.39943
12.9087
0.267421
0.552824
0.607302
0.716259
2.4449
0.968866
0.463686
0.493059
0.640374
1.78236
1.87887
2.8978
2.927
3.19569
3.30895
3.89058
1.03865
4.39116
0.814116
1.11496
1.41349
6.48195
0.88103
12.7708
26.6709
50.4543
0.737393
0.883766
1.0297
1.12821
1.20811
0.418442
1.88969
2.28105
2.44766
2.54998
0.427147
2.79346
2.73339
0.289658
1.05744
3.95314
1.046
0.546136
0.448717
0.124819
0.892399
0.311689
1.05691
0.912005
1.01331
0.126955
1.28894
2.64183
0.322199
0.636685
1.42748
3.58562
145.177
0.292651
0.443126
0.599961
0.595072
1.16701
1.45984
1.72993
3.94711
0.0643558
4.88873
2.24869
0.745701
0.775906
0.986733
1.46147
2.63793
0.480821
0.806486
0.80457
1.03077
1.51555
1.83984
2.12342
2.24939
2.28406
2.49114
0.565453
0.262626
0.627441
0.855945
2.45292
0.262827
4.60923
0.154308
1.35167
0.166541
0.60094
1.04729
1.15411
2.18824
0.587083
2.23856
0.755435
0.844394
0.697905
1.03139
0.511787
5.64852
6.50412
9.79923
88.0546
0.439963
0.551747
0.701256
1.05254
1.24265
1.27256
1.97087
3.30952
0.768459
3.80067
3.99016
0.751389
4.75555
0.441266
0.138791
0.0530182
0.07232
0.281198
0.798063
0.830798
1.07927
1.08122
1.22012
0.14548
2.07239
2.3813
2.64514
2.76225
0.480142
0.968332
0.158714
5.05012
1.62355
7.58433
0.0935855
1.03626
0.461375
0.9443
0.0623527
1.24129
1.57985
1.81862
2.12522
28.5328
28.7733
0.137666
1.02517
1.46344
1.93519
3.20553
0.394053
0.24668
5.11197
0.59763
0.0841234
0.767264
0.324206
2.82741
3.33408
6.56574
331.686
0.127546
0.36504
0.74407
0.414443
1.26265
1.73935
1.85518
1.8755
2.12066
0.20022
1.36765
0.273455
3.09093
0.607458
1.86109
3.67518
0.112869
0.538255
9.56408
15.7952
71.1357
0.421873
1.05638
1.33411
0.566406
2.7629
1.13546
0.953291
1.03059
0.397625
0.666449
1.01897
1.6908
0.758188
2.41225
0.111408
3.4455
7.76827
0.0700093
0.338725
2.54985
69.9832
0.2271
0.516529
1.01773
41.5698
0.148003
0.578738
0.682673
1.24883
1.24374
1.26466
0.147496
2.47912
1.11126
0.119706
5.02031
1.21004
0.240743
3.27772
33.3738
138.277
217.858
0.222821
0.742875
1.32505
1.68142
1.71908
2.02107
2.60881
1.18673
0.805969
3.80956
3.75713
1.42143
0.131164
0.620715
6.82816
7.85079
9.44968
1.55254
13.552
14.2453
15.637
0.697079
1.36412
0.409212
1.38231
1.68206
23.6551
24.1947
0.0755797
0.119689
0.141657
0.487075
2.37093
0.450131
0.601307
0.616663
0.647636
1.36277
0.43316
1.8437
200.379
0.523293
1.25661
1.64269
1.99576
3.07871
0.607431
4.24718
133.244
0.102099
0.292217
1.31433
2.57197
0.145378
0.410623
0.620621
0.702677
1.04806
1.16797
1.26647
1.34106
1.57914
2.29275
2.85017
2.88477
3.33791
0.726724
3.90933
0.290982
0.26489
2.91147
12.7574
0.297091
0.484456
0.867039
0.0925157
0.471365
0.572343
0.737662
0.254098
39.7554
82.1264
0.345393
0.324897
1.57119
1.6563
2.18688
2.39271
3.59448
0.287569
0.946964
1.68102
4.37983
5.82382
0.200312
12.5668
0.573114
0.612854
1.07078
4.46486
0.526401
4.96767
5.14812
0.646131
1.09317
1.01461
0.20668
1.90306
2.30877
0.396163
0.357647
3.46034
2.52219
3.77491
4.06982
4.35398
4.38221
0.399996
5.74959
0.111802
11.7537
14.1876
0.120106
2.05798
2.59459
3.51488
1.28913
1.2627
0.14303
0.160579
2.8852
0.455256
35.8031
1.05448
1.02844
0.252613
2.00181
2.38233
2.95098
0.150344
0.991115
3.99039
0.382366
1.10166
4.71596
5.22019
5.33083
0.947526
0.935684
0.042411
0.441091
0.173538
0.61798
12.1572
1.43662
7.2068
0.688927
1.80392
0.175224
0.628473
0.370338
0.690364
0.980169
1.7513
1.82309
5.30043
0.669674
8.08175
309.57
0.37099
0.755869
0.803578
1.50382
0.354601
0.878198
0.384248
0.915601
0.205007
0.485974
0.201581
0.749737
0.158063
1.02907
51.7604
0.286618
0.705113
1.27382
1.38216
1.87741
33.5967
165.2
0.121793
0.471598
0.864297
0.133186
0.44895
0.989052
13.7649
0.0770809
0.0943178
0.281787
0.429989
0.859138
12.3323
22.2875
116.74
0.32324
0.496538
0.664543
0.89548
0.956231
0.941242
2.46527
0.818537
0.261553
0.312637
6.91669
7.32251
0.218144
0.287119
0.47815
2.13897
0.129663
0.332662
0.456961
0.460617
0.537287
0.866177
0.973029
0.134316
1.60766
1.62072
1.65023
2.25271
0.170327
0.719482
8.46618
15.9642
25.0731
0.101245
0.632368
1.15437
1.41221
1.96387
2.43277
3.12038
61.5789
0.738101
0.931751
1.0552
1.14864
2.9981
6.49518
0.383018
1.51146
41.3466
0.330437
0.753482
1.53437
2.02184
0.930258
3.2275
5.28091
0.206209
0.320069
0.424448
0.306057
0.873199
1.14946
2.05699
6.39868
24.4186
0.464635
1.08942
1.35012
1.48009
1.91609
2.15325
0.338878
2.61118
3.47043
0.397969
6.28881
6.84375
1.06361
0.194124
0.336257
0.443184
0.292454
12.8346
15.4273
1.33772
2.12704
2.7691
39.664
0.838828
1.02451
1.07274
1.34387
1.50239
2.78021
34.1316
0.896871
1.05851
1.17549
1.38055
0.459756
1.71659
0.0633852
0.562103
201.072
1.37603
2.81964
0.737831
0.906083
1.40987
1.57457
0.307919
1.69526
1.86278
2.69896
0.873078
6.1522
0.217596
7.16743
8.72998
0.454922
1.07976
0.246401
2.26816
0.786279
1.09177
15.2315
25.799
1.29115
0.167479
2.00377
0.551326
0.177636
0.149023
0.734917
1.05504
1.87195
2.11834
0.363513
2.69801
3.06414
0.837966
0.671186
1.1088
0.910393
0.532579
28.806
56.3524
91.7208
258.381
0.397302
0.527045
0.801014
0.877686
0.989893
1.36715
1.37952
0.167728
16.4542
1.24471
1.30757
1.25889
2.96086
0.488956
0.469464
3.65274
5.83308
1.14527
0.683877
0.168246
0.732766
0.925424
54.2347
0.550572
1.52998
3.06087
0.267376
0.535142
1.07289
0.81588
0.833645
0.883312
1.41312
0.187858
2.61171
0.795526
0.922298
1.0407
1.39156
2.13405
3.36167
68.8766
2.79915
3.09078
3.75286
0.562152
0.73067
5.7352
0.164138
0.836102
24.3588
104.12
215.752
0.183616
0.670313
0.64341
0.52525
1.13182
1.64047
0.326481
0.526307
0.642791
1.27601
1.91402
1.86143
1.90728
0.0498945
0.163131
1.38443
1.4604
6.85442
0.692198
0.761891
0.777372
0.90553
2.07633
0.660775
0.709955
1.28941
3.52429
0.27352
0.982427
0.955415
1.43918
2.19864
2.77807
3.54623
1.95507
4.02699
5.50498
38.2528
0.537733
2.00755
0.424121
0.384132
0.408358
0.422465
0.556029
0.679126
0.16015
1.60842
0.832875
17.2725
22.1441
0.557221
0.572719
0.105365
0.407178
0.483207
0.576773
0.753713
1.36052
0.146579
2.0678
0.164089
2.61243
3.47144
0.448363
3.91314
4.40856
0.68649
0.751126
1.36064
0.136231
0.330134
14.2251
24.1437
42.6976
292.834
0.536066
0.824659
1.10981
1.152
1.15546
1.36823
1.4196
1.79147
2.05338
2.18963
2.80136
3.19521
1.02304
0.978707
0.220135
0.063383
0.496023
0.0285606
0.23627
0.880459
1.06563
0.
7.559
0.264016
1.51077
2.01086
2.6149
0.269612
1.54109
3.09916
0.269478
0.469632
0.652754
4.02488
0.487417
4.60245
7.15773
13.1568
63.7989
0.468614
0.716894
0.747356
0.804018
0.86736
1.18911
1.21184
2.89252
0.514737
0.683534
0.678591
11.827
19.6325
0.398793
24.427
0.297956
0.501643
0.600622
3.65057
3.98974
0.662904
0.707439
1.2835
1.34343
1.83092
2.52787
51.297
0.251467
2.37248
0.306106
0.433105
1.25999
2.1997
2.72588
25.6355
377.62
0.263479
0.32228
0.552673
0.594207
1.37835
0.328067
2.78567
3.01984
3.23745
3.33645
3.43534
3.62816
0.202544
0.712448
1.25632
0.598384
3.00595
0.402098
1.32842
0.550943
0.608782
7.89475
1.30047
18.1269
206.329
206.669
1.16773
1.4536
1.47633
0.462553
1.07615
3.06089
0.622817
0.244651
0.450882
1.53019
1.60274
1.75086
2.99661
0.248966
0.521454
0.972269
0.212313
2.06817
3.41209
32.5111
50.2371
0.473193
1.55781
1.65619
1.25346
0.0608812
3.01624
14.5916
0.316317
0.652058
1.20084
113.696
0.466547
0.796162
1.08613
1.45417
2.27923
2.30279
2.62879
3.09354
0.570485
4.52618
4.74732
4.82579
0.339867
5.27512
0.741985
10.3489
10.3783
11.4095
0.667135
0.900893
0.881407
1.36633
1.36119
0.802797
2.95262
3.74009
1.24637
1.30432
1.09708
4.88607
6.6357
0.447717
1.19226
2.54352
12.165
0.992366
0.967463
0.105949
0.0931765
0.651072
18.9527
0.282504
0.43781
1.76139
0.515564
0.578589
0.635335
0.662149
1.02487
2.54036
0.825291
1.258
1.75176
0.703967
0.427377
0.240196
0.533109
1.11361
31.9173
0.448607
0.524537
0.733247
2.86969
0.798832
4.34007
5.79716
0.830341
1.00038
1.05005
15.0915
0.291888
0.957008
3.36016
94.6422
112.087
0.661659
0.639344
0.812985
0.758339
0.881527
1.55001
2.32999
2.47683
2.78223
0.660972
3.26908
3.33925
4.10119
5.62854
1.8154
6.36564
0.0125565
0.132548
0.219303
0.304113
2.50281
0.522085
0.697403
0.336938
2.08554
3.48447
4.05447
0.185425
2.10037
0.13638
0.42803
169.622
0.725239
1.29881
1.77299
2.44239
0.637877
0.231675
2.69117
3.33412
3.35499
0.65743
0.295321
4.6152
5.24334
5.60702
2.17638
0.306042
0.920583
10.0337
10.4926
10.575
11.4088
0.346663
0.408022
0.0494117
1.37714
13.0939
14.9919
57.2773
110.023
136.708
0.564433
0.933227
1.65553
1.70538
1.80489
1.84262
2.10212
2.25259
3.54538
0.136565
4.22991
4.26688
4.40832
0.219731
1.07681
5.93562
1.44265
6.38049
0.808446
8.02964
0.886944
0.104234
0.217384
1.67818
0.465084
0.945133
1.74677
4.06664
0.430183
0.781083
0.314997
279.733
1.60847
1.81986
3.11872
3.80178
0.674201
0.997067
1.65391
0.195092
2.65128
0.329433
5.13063
5.90143
6.81142
3.62975
45.3852
0.480424
1.23823
1.19964
1.87358
2.10806
2.39418
3.03131
0.366549
356.569
0.35144
0.812819
1.14165
0.626875
1.13961
1.00553
1.33051
1.00732
1.43309
5.28827
2.28562
5.54839
0.782403
0.251614
1.23995
0.133005
0.492623
9.87283
17.3273
0.161071
0.633581
0.828828
0.921992
0.973384
1.08333
1.20242
2.81165
3.45885
0.411031
4.87846
5.40455
0.114304
1.38827
11.5683
1.76686
3.24372
0.301387
0.162125
0.461756
1.29616
1.83216
2.79002
3.31125
186.157
0.422555
0.651421
1.20089
1.29631
1.56854
1.62706
1.99647
0.110032
2.52249
3.10145
3.20961
0.64579
0.155081
5.6657
0.351345
7.97481
0.0721883
0.621055
8.46345
0.2781
1.12865
0.164889
0.301742
1.30544
0.247244
0.371328
0.242624
0.893317
1.92115
7.23223
36.9011
82.6364
0.311655
0.550165
0.758077
1.42135
2.22202
2.51328
0.482905
4.11294
0.628263
0.108623
6.78029
7.33992
7.76763
0.27992
0.570627
0.243027
1.29201
1.52159
1.09198
0.061305
0.122024
0.540046
0.969759
0.215219
0.918816
1.09946
2.31659
2.43218
1.06992
2.96833
3.06547
0.753326
4.38604
1.23046
1.6727
5.37853
1.6701
0.497243
0.802024
8.06849
9.92022
11.027
1.06175
0.882876
113.552
248.448
0.287399
0.861991
0.900259
1.02911
1.69412
1.76217
3.23655
3.41624
0.636013
0.492843
4.87951
1.61781
0.520695
5.95661
0.178571
7.21304
7.7992
0.0539475
0.739614
2.47917
1.44621
9.85509
10.4045
0.135797
2.35322
13.4439
22.5563
1.15924
22.5829
0.716256
0.701129
0.752358
1.03297
1.83776
2.20986
2.78282
0.152801
3.66324
0.188623
0.155516
0.397478
1.99469
4.83047
0.672038
0.781994
1.32519
1.33101
1.37958
2.26481
3.41986
5.83769
1.85396
7.1452
26.1668
189.177
0.255886
0.585096
0.933907
0.342507
0.569402
1.80014
2.26059
0.308893
0.557374
0.778984
4.01582
1.2514
0.580154
0.29171
0.166226
0.944401
6.01825
1.65592
7.53786
10.2891
39.1658
1.05402
1.2277
1.79647
0.213118
2.88224
0.0576083
2.8897
3.02236
0.196419
0.112332
1.17461
1.02865
0.0673374
0.286551
0.0771128
0.632693
14.736
0.750978
1.07531
2.24493
2.98376
3.53541
0.0598273
0.273275
1.30768
1.48535
2.19959
2.32477
2.59997
2.69259
3.09811
0.102548
5.22022
0.0444253
116.341
0.366547
0.818019
2.06051
103.257
150.353
0.596728
0.862242
1.25856
1.57652
1.68774
1.84937
2.1017
0.415277
6.81056
7.0019
0.67595
7.15184
0.169033
0.191023
9.83752
0.87148
1.26393
0.524228
1.02053
12.5862
0.0182363
2.79382
29.3528
262.957
0.346073
1.90755
1.97352
0.190893
0.925152
2.20518
0.638747
2.76302
2.79777
2.88438
3.12659
3.71249
0.191543
3.98866
7.33776
0.25165
0.70847
9.40271
0.305213
0.512047
0.134296
0.112027
1.05476
1.59852
0.688744
0.919731
1.93295
2.46787
88.3485
0.477456
1.21426
0.418857
1.6529
1.93268
2.02312
0.440434
0.137948
5.44976
2.06762
0.81183
0.256039
0.483926
1.20299
5.77879
0.133719
0.777352
0.544249
0.749803
0.165737
0.220777
1.5872
1.59151
1.6893
3.77602
0.676742
4.25165
0.925765
5.00124
1.79352
5.3549
6.2935
0.861765
0.453259
0.60051
1.02351
1.28891
9.23953
0.117779
1.1457
10.0426
0.0720785
2.8103
0.777711
2.10944
4.95941
90.3444
150.28
0.345003
0.982417
0.619965
2.5238
2.58097
4.33638
4.82664
0.559592
14.7457
72.5274
0.671774
0.686247
0.13848
1.53275
0.172771
1.62795
1.81786
2.9693
3.02506
4.35169
6.5112
11.2422
19.2718
47.051
0.335911
1.01644
2.854
0.312864
1.09961
1.44001
2.41243
3.10601
3.92506
0.331686
42.8905
0.240517
1.02359
0.616392
78.2049
0.324685
0.325599
0.201827
0.154905
1.30177
1.65877
0.173848
2.48137
0.48924
0.331005
7.51182
0.53115
0.744164
1.39882
1.61706
1.07516
0.918688
3.24334
4.57676
7.05088
0.642336
32.1162
33.9512
44.9681
0.445708
0.652986
0.0559441
1.1547
2.59215
3.24267
198.878
482.109
264.704
0.0985907
0.474849
0.646731
0.961446
1.01542
1.09447
1.13204
1.16736
1.7016
2.91573
0.801178
0.171674
0.624655
0.85655
4.22162
0.250827
0.545523
1.18415
0.491594
21.7628
0.168862
0.656931
2.94791
0.110755
0.46922
0.882383
1.35748
0.262359
52.6833
1.0084
1.08643
2.39221
0.198051
0.856747
1.29294
1.36277
3.15515
33.3399
0.230595
0.438339
0.619101
1.09613
1.10601
1.2438
1.99355
2.10925
2.34865
0.250866
0.183379
3.14932
0.797354
3.72073
0.372133
0.39761
5.86387
0.859959
0.581347
0.733647
0.71445
32.1699
154.963
0.757229
0.835672
0.904186
2.95013
0.100334
1.14634
0.19621
0.246227
1.21418
1.31411
0.434103
2.47851
2.55281
2.60336
4.03793
7.43313
0.42474
1.64661
2.28832
2.46326
2.67179
2.70905
0.28114
1.1919
0.0715191
0.814109
0.0752028
0.123006
0.28761
5.99298
13.6809
1.21493
0.454827
0.508075
0.634547
0.742849
1.32053
1.61591
0.402857
1.80242
0.767569
1.38136
2.40673
2.35692
1.47715
0.496366
9.11378
12.8069
14.7261
24.0255
0.0724765
0.632226
1.15765
0.131863
1.38161
1.71809
1.80355
2.09297
4.40693
0.310229
0.408042
0.477952
0.461901
0.367129
2.28633
0.258786
2.57917
316.76
0.265359
0.59144
0.596064
0.734638
1.18872
1.50259
1.53676
1.60731
1.73079
2.41718
1.30521
0.449622
0.618268
3.34453
3.57972
3.62344
0.0877068
0.346901
0.12988
6.92134
0.877382
7.83995
0.653432
0.447201
0.797496
7.76769
11.2909
0.148676
1.58624
0.396025
0.63507
1.36665
1.34924
1.7862
0.769164
0.845467
0.956112
0.202749
38.6458
0.731469
1.18038
2.78284
0.618009
0.698272
1.12748
0.228562
76.2781
0.252017
0.556518
0.590728
0.670261
1.034
1.42397
1.39547
1.63683
1.90706
1.99882
2.55264
3.87935
5.12679
0.916476
0.52633
7.09457
0.806204
7.57983
1.78148
9.097
9.40695
11.7483
0.21905
1.97464
13.0757
16.3329
0.152195
0.249613
2.53124
0.200921
0.27522
0.723522
0.970451
1.46033
0.341972
2.35275
0.94342
2.80322
0.322564
0.943126
3.27327
3.65603
0.798834
4.22527
4.53673
0.855064
0.906468
1.24174
0.244465
1.2005
9.00571
0.522698
0.029184
10.9061
6.428
12.7794
1.00417
0.987163
45.406
0.461258
1.12059
1.11576
1.3713
2.31334
2.57311
4.39078
4.99439
0.206005
0.214169
1.78139
0.223819
1.03688
1.21851
1.27431
1.33902
0.499878
2.30542
3.52561
10.1168
0.55685
1.50869
0.57529
69.4968
0.194366
0.214931
0.704957
0.704927
1.88469
1.27078
0.705875
1.129342.81642
0.261838
2.56517
1.02659
0.0947071
0.471799
1.17116
0.428504
0.604927
0.430932
1.63338
2.18968
0.384588
0.684567
0.0924009
2.00539
2.53835
3.68093
0.187555
0.358585
0.411941
1.97953
4.72053
18.6241
0.111926
0.329975
0.749694
1.58757
2.47166
3.74003
199.961
0.484249
0.722469
0.771014
1.19022
1.25694
1.32798
1.4335
0.133634
0.280113
2.15127
2.47136
1.05756
0.220711
1.0054
0.459762
1.18598
7.56411
0.477696
2.19415
0.937983
0.263626
1.69129
139.008
0.725058
2.00275
0.680568
0.628114
0.767506
0.909041
1.138
0.918116
2.998
0.196585
0.279673
157.687
0.0600972
0.184894
0.234632
0.512511
0.901344
2.03455
2.09709
2.26626
0.148214
0.329875
0.625972
1.1178
0.0314272
2.50082
1.14406
19.5263
50.2571
0.152382
0.968228
1.4584
1.70771
2.79085
0.919328
8.41467
0.608039
1.12593
1.11549
0.238628
1.66209
2.0046
2.06436
0.72882
4.90367
1.22294
1.91409
0.760137
0.102794
1.39926
0.605589
0.194819
1.84449
36.2677
116.715
0.62585
1.01948
1.68471
1.84725
2.72273
2.77535
3.12476
5.60321
0.922778
1.1285
2.75623
204.794
0.574205
0.78345
0.894238
0.865841
0.542673
1.39506
1.97641
0.400042
2.20403
3.83786
1.31597
0.298395
0.689013
1.19657
0.631293
0.917189
11.8943
475.851
0.056152
0.219144
0.542978
1.14607
1.40238
0.00712076
0.853199
0.157555
0.463574
1.01547
0.502619
0.0408326
0.408943
0.778502
0.0935576
4.2462
0.683552
7.19929
6.90432
0.167371
0.220967
0.795141
0.0565497
0.405587
3.87065
367.376
1.04196
1.61446
2.14828
2.16952
0.585902
2.34844
2.57438
2.89789
1.19725
0.99856
0.910237
0.562388
0.231471
0.233407
0.493558
0.754169
5.9608
0.128974
1.21715
1.27542
2.00754
0.254871
0.507945
0.309809
1.26461
1.34215
1.36372
0.0648741
77.4387
78.3676
0.833257
0.887747
1.24216
1.3815
0.355396
2.21707
0.111861
2.54249
2.54306
0.175202
3.88361
0.507765
1.85192
1.24176
15.5553
0.0804187
0.35592
4.33879
100.007
0.3703
0.680573
0.992882
1.10835
1.71849
1.7516
12.0995
0.0560112
0.380218
0.531924
0.579531
2.81986
68.2953
227.61
0.11537
0.331561
0.486544
0.533153
1.36333
1.3853
1.97239
1.96068
2.36501
2.58979
2.81773
0.317085
3.243
4.06672
0.488227
0.264624
5.37769
0.761185
9.49311
10.3704
0.105461
1.0856
0.637457
0.704728
43.2075
0.087848
1.00082
1.23578
2.0285
2.2502
3.4162
1.70107
4.28193
174.425
241.259
1.29418
1.44285
2.01012
0.137112
2.48423
2.58498
3.0735
0.535329
0.503132
1.7612
5.1732
5.66959
0.789306
1.3836
2.48352
0.358099
0.743927
47.859
0.59223
1.12822
2.22848
1.3203
28.7322
0.404215
0.490213
0.853368
1.10178
1.41944
1.67531
1.83198
1.93912
2.23785
2.30697
0.196782
0.584212
3.80437
4.3587
4.99106
5.13791
3.09677
1.46773
0.0367268
15.4544
0.0600004
27.6512
45.3708
52.3121
0.258746
151.996
148.875
0.774145
1.63069
1.87207
1.96574
1.96532
0.0605234
3.03522
1.13527
0.918598
5.22167
0.222888
5.79191
6.67703
10.4618
93.5847
0.340552
0.205051
0.42584
0.784105
2.05507
3.50199
0.687701
0.910042
0.984129
1.05522
0.356343
2.26213
2.43176
3.35395
361.623
0.220159
1.30237
1.69337
1.69384
2.09863
2.28457
2.23801
2.73647
3.59552
0.668473
0.559259
0.385464
6.34598
1.80983
9.09264
0.0353206
0.609296
8.49989
0.842379
16.3503
337.539
0.155939
0.368505
0.736147
1.61835
3.17167
0.43385
0.0609664
11.1026
0.84094
1.31589
1.68706
2.37916
2.53614
3.00667
0.342807
0.758384
4.42127
0.236838
1.13351
8.10916
0.51619
0.597696
21.9643
39.6502
0.230471
0.574178
1.0926
1.53256
0.159717
0.16481
0.484854
0.726462
0.937777
1.4304
1.54573
0.268395
0.462637
4.02526
6.84219
0.639726
0.0941738
0.778772
57.2032
191.58
0.469657
0.670924
1.33943
1.33692
0.360993
1.77119
0.795028
2.77944
2.95137
3.86628
4.10383
4.30205
4.71661
0.394829
0.548787
0.37711
0.236026
2.07211
41.5956
0.292803
0.391877
0.818537
0.935944
1.82353
0.137223
4.11721
0.828472
20.3992
0.187379
0.499452
1.19552
1.43725
2.77133
32.9361
0.392008
1.17775
1.49724
4.03819
0.347297
0.424094
1.2432
0.350043
0.545199
2.36162
0.215671
0.493795
1.3265
1.69006
2.24647
2.4591
0.927645
2.79401
0.667582
0.569861
3.7435
0.784058
0.745418
0.484134
6.51563
1.76275
0.303802
0.119406
1.03579
163.353
0.478726
0.786653
0.383071
1.57171
0.28801
0.868359
2.1431
0.998723
2.32591
2.74345
0.11757
1.05958
0.403121
5.63104
7.01989
8.11092
0.433856
0.643479
1.19661
0.468359
2.15575
0.759151
2.69251
0.684732
0.398064
69.0299
0.676489
1.01717
0.16504
1.55461
1.79473
0.328227
2.27746
0.831726
0.196773
0.562575
1.17717
2.40238
0.296858
0.458021
0.818239
0.822291
0.808193
0.850092
0.109124
1.11137
0.441628
0.221577
0.577905
3.52569
0.284451
6.64544
6.79768
0.961886
0.343042
1.04151
1.04713
0.11618
2.73961
1.03076
0.242246
1.58072
0.42235
8.61586
23.5599
67.4706
0.134023
0.858244
0.997516
1.832
2.21362
0.211038
0.813551
1.59117
15.1922
0.816087
171.923
0.400354
0.584721
0.884555
1.23726
1.47536
1.53525
1.53266
1.53635
1.8375
0.718026
2.58091
0.307276
0.858846
45.4378
1.25566
1.48034
0.310055
1.9623
1.26544
0.297658
0.727304
1.18305
0.586353
0.397036
1.39197
0.213149
0.5827
0.842816
0.954214
3.88767
42.3288
135.533
0.37054
0.837751
1.30533
1.56627
0.301364
1.87865
2.39179
2.45192
3.07197
4.34824
0.294337
0.895789
0.301972
7.21805
0.2403
0.121538
0.88888
0.806219
0.982529
1.31992
1.79173
2.83131
3.58276
7.47087
0.396851
0.43374
0.945561
468.638
0.383982
0.414932
0.580552
0.814182
0.795449
0.800507
1.32191
2.01465
2.09615
2.15291
0.268157
3.51844
3.78883
1.65128
5.04436
6.61002
6.73104
7.53982
1.39018
0.644175
18.8565
0.425504
0.535044
1.62659
54.1048
60.6034
0.517207
0.62642
0.989452
1.14591
1.13437
1.18227
1.76089
1.72905
2.13084
2.3098
0.0633822
1.22362
1.64057
19.2644
0.611583
1.0485
1.09936
2.04947
2.47665
3.22322
1.14587
4.72624
5.6323
0.888882
6.42132
0.814656
7.52029
1.74279
1.95953
0.434538
0.301149
0.687577
0.175891
0.379501
0.0918658
1.46108
18.7045
152.209
0.218188
0.580395
0.750196
0.750414
1.01877
1.32794
1.5987
1.90252
2.19033
2.32771
2.57818
2.7428
2.95717
0.834675
0.183833
0.185888
0.336959
1.08929
9.32107
1.19591
0.258014
26.6126
27.335
54.0367
165.049
0.0888597
0.135994
110.788
0.131265
0.321726
0.270142
1.56962
2.25381
2.32931
2.71822
3.27047
3.89847
4.32607
7.08486
0.184412
1.14543
0.516404
0.598746
0.652844
0.761791
0.488605
1.51933
1.72273
2.43
2.42984
2.7017
2.76218
4.17246
0.500634
0.26204
0.0995706
0.213212
0.499667
1.72136
2.08803
0.66429
0.217888
0.691892
1.77133
2.50609
26.1731
0.671602
0.679058
0.756792
0.880366
1.28386
2.51009
0.379776
0.745419
0.0405656
3.35632
0.84341
1.49658
0.473186
0.46983
4.77118
0.522078
0.279495
0.875276
1.27043
1.25975
2.41919
0.305069
0.333745
0.35464
0.553768
0.731584
0.936244
1.40324
1.54735
0.493751
2.46208
2.96507
3.42409
1.0458
0.426659
0.489806
4.70781
0.312313
0.110769
0.543904
0.0886131
0.502245
0.718021
0.274774
0.51317
3.27966
3.33735
0.603292
0.692299
1.16435
1.23207
1.29558
1.85584
2.41834
2.86916
2.86254
2.69231
3.63456
0.514557
0.361128
0.166767
0.742783
0.0265557
0.114683
0.187189
0.764591
3.44135
0.288978
0.649225
1.6504
0.20232
0.630296
1.01641
1.04021
1.07088
0.50943
0.519224
2.3704
17.2954
0.166669
0.241266
0.725331
1.27655
0.502857
179.011
1.01869
1.04455
1.5249
0.57571
2.60248
258.096
0.370976
0.399807
0.439551
0.32152
1.38763
1.45737
0.474919
1.87163
0.376305
2.01746
2.23588
2.50107
2.53456
2.82242
3.1536
3.52766
4.13035
0.635865
0.288184
8.51389
0.280299
0.281082
0.358366
0.597784
0.717791
1.00589
44.6339
44.7895
0.0703665
0.176463
0.887542
1.91779
1.94876
2.09353
0.891363
29.973
56.4949
0.394811
0.727808
1.17566
1.345
2.0377
3.85892
0.180849
0.659668
0.931485
0.946573
0.9869
1.3512
1.44072
1.43571
1.42395
0.159377
3.39126
0.512067
7.43648
24.65
83.4375
0.200906
0.23326
0.502687
0.875833
0.880665
1.16781
2.04013
0.0887867
2.10363
0.519277
0.730797
2.83265
3.18082
0.301109
0.305856
0.196748
5.4994
0.939798
8.36292
10.3505
13.4526
0.248266
0.487162
0.862055
102.806
131.055
0.706895
0.338361
0.926736
1.40008
2.59667
2.74925
0.169564
1.39612
0.588363
2.32238
0.528883
0.635757
0.698674
0.769912
2.12092
2.55594
2.81903
2.96343
86.7691
1.14766
0.404307
2.53516
214.827
0.555789
0.863503
0.237499
1.13045
0.472992
0.450471
2.2068
2.43345
1.27516
3.08986
3.60701
0.997516
11.3567
0.165474
0.372393
0.38008
0.547586
0.590021
0.845088
1.36033
1.7214
1.96346
2.9482
3.6804
0.750386
0.862681
2.04134
2.0845
2.27513
2.30039
3.61578
4.50926
5.3554
6.16258
1.20416
1.14689
0.00148758
9.47052
0.212175
0.665713
1.14283
0.288557
0.928787
14.7856
53.2163
59.7369
0.0601878
0.287437
0.691623
2.1872
2.92588
0.497441
4.17051
0.468299
0.764067
0.825973
4.21552
6.00041
19.1287
125.359
0.280878
0.642011
1.13182
1.87514
1.92856
1.94586
2.07541
4.21348
6.368
0.304141
0.485628
0.503192
1.05816
1.23484
1.46864
1.14996
2.33568
0.19188
3.17473
0.541348
0.181079
0.254193
5.1523
5.62129
5.74773
0.3446
1.26217
4.32246
12.1206
0.497451
3.97685
18.6129
18.9678
0.564467
0.328083
0.460811
1.49707
1.88416
59.1778
0.296158
0.729145
0.415088
0.286208
2.07397
1.09405
4.92298
148.438
1.069
1.10969
1.19414
1.25453
1.30892
1.4777
1.5289
2.1501
0.405975
0.572632
5.44489
7.05885
0.241404
1.31392
0.93614
1.12149
0.293679
0.613418
0.182593
5.05493
0.981124
1.12082
1.09537
0.0898081
1.25763
1.77808
2.25553
0.130655
3.20567
3.34078
0.193641
0.603879
3.57203
5.88135
0.51639
28.7622
70.0591
0.300554
0.529296
1.46786
2.19372
2.31631
1.16981
2.5444
2.72257
3.205
1.17203
0.716291
0.236976
0.854274
6.80952
0.26531
0.914792
1.31034
1.41472
1.49356
1.94168
2.41402
2.7513
1.86169
3.80598
4.52233
0.115804
0.92063
1.35174
14.2756
1.01556
1.01565
1.50653
0.158577
0.795616
1.6553
0.67603
2.51314
2.53794
0.321664
5.27206
22.5979
55.2347
0.367981
0.611651
0.968233
3.37175
0.464533
26.1394
116.331
1.60016
1.83856
0.826243
3.23184
0.0453277
1.63594
2.04218
6.6046
6.67721
0.18376
15.7824
0.794425
0.796504
0.789353
1.40913
0.132784
112.992
0.325466
0.578322
0.681443
0.740756
1.19716
1.5139
2.1992
3.29341
0.508007
0.594014
6.80633
0.118734
0.12299
1.48324
0.237149
0.975218
2.70649
0.216926
3.24002
17.7607
0.170367
0.990013
1.27962
0.517678
0.242857
0.790989
0.840641
1.02994
0.0706958
0.358343
1.03612
24.7635
0.217614
0.763873
1.19517
1.85755
2.05512
0.17879
9.5234
0.776284
0.931994
1.09124
1.07352
1.37586
0.141852
1.62422
0.738627
1.88008
1.93357
0.107543
0.601797
3.186
0.714884
3.20575
1.29886
3.92713
4.01436
0.722865
0.220594
0.453806
0.458362
0.269577
0.507087
10.2686
0.645776
2.37206
42.192
0.101438
0.366021
0.887195
0.945849
0.987028
0.202855
3.80396
4.07916
0.629415
1.31235
6.62161
7.51432
0.352015
0.335136
0.804727
1.03607
0.596787
0.229719
0.220171
0.681686
1.13156
1.74336
96.5392
0.409673
0.83744
0.960553
0.998499
1.06199
0.837298
3.91998
0.799612
0.114398
7.64759
11.2662
0.803171
2.39981
0.260802
0.53833
0.868138
1.44453
106.655
159.259
0.501721
0.587231
1.10587
2.84053
0.691231
1.00246
1.06213
1.45517
1.73743
1.86708
2.3197
2.89242
3.03212
3.49653
0.444748
2.58766
8.24068
0.125538
0.875906
0.485826
0.791203
10.9657
0.208832
12.9231
67.2023
158.387
0.173668
0.707192
1.00478
0.478521
3.89295
0.699038
0.3886
0.355818
0.59972
1.11296
1.40666
0.293957
0.476519
0.0730126
0.378921
0.73339
1.84083
2.2383
0.611796
0.683404
1.15689
1.60184
2.57069
0.722576
2.82962
3.05431
5.31643
7.7524
9.55894
0.185308
1.53647
28.9438
0.496498
0.514711
0.585038
1.59061
2.41104
2.51206
2.98824
0.366773
0.549222
1.17745
1.65886
1.93191
3.87147
0.0752595
6.20116
100.02
0.42464
0.710435
0.92771
1.00374
3.47787
4.00866
0.0551919
0.211592
0.278924
0.400405
0.368498
0.451137
0.832556
0.341312
1.97104
2.09931
3.80427
3.98423
3.99821
0.392465
11.3946
0.208891
1.16999
15.8212
77.346
0.0656412
0.654279
1.9102
2.67907
0.523509
0.566597
0.78608
0.957766
1.40724
1.4877
2.27036
2.45854
0.661126
0.320803
4.02474
4.04321
4.24197
0.920139
0.672488
0.707618
6.40972
11.4258
56.5884
1.10891
1.23835
2.08044
2.30783
3.04677
0.543855
2.43787
0.490406
1.68154
169.945
0.321658
0.340887
0.120335
496.94
0.0234828
0.49225
0.726687
0.903615
0.910865
1.07227
2.57143
2.82859
3.04152
0.423331
0.326961
3.86337
4.29878
1.59169
6.23889
6.82198
1.05221
1.0595
1.29064
2.46939
0.696824
1.5721
0.680545
0.897667
1.26532
1.56348
2.26292
2.36256
0.727126
0.380035
0.729079
0.470288
0.557059
2.15339
2.7814
0.558322
0.585961
0.147485
1.57355
0.594844
1.8991
0.732399
3.29942
0.462139
0.951014
0.964397
0.138908
0.341016
0.421919
0.532963
0.0182343
0.499734
0.756194
1.79475
0.315456
0.51433
2.35488
0.867899
0.414185
0.532321
1.09143
0.621729
0.211544
1.87976
6.25172
7.54093
0.481724
10.3071
0.477819
0.888204
2.61612
0.472803
0.621304
0.536106
0.185907
47.0389
1.61662
0.340038
1.77116
2.92001
1.16515
55.0221
0.318114
0.504565
0.672895
0.752439
2.06441
2.02231
0.194178
0.811239
2.19038
2.73357
3.0551
3.59798
0.221981
5.59657
5.64679
0.654139
0.928379
0.425094
0.288982
0.349208
0.0533499
0.861198
0.933841
0.621098
0.685854
5.03156
0.0740281
1.80378
76.2705
0.4575
0.864384
0.109541
1.65896
2.0492
2.14205
2.19461
2.30833
2.38957
2.34361
3.32022
3.40963
0.622637
3.59526
3.65618
0.544632
1.13083
1.1086
0.130622
0.45059
0.472034
0.15631
0.896303
0.637749
0.884234
1.37068
1.56732
2.97477
49.5466
0.348055
1.2421
0.187518
1.2603
0.116588
43.2552
90.1215
0.513301
0.531278
0.614349
0.694555
1.6104
1.97558
2.11478
0.848142
2.36332
3.17352
2.01716
3.66201
1.5475
8.10451
0.231633
0.346975
0.666793
1.04442
1.28035
1.68119
0.00765961
0.0453239
2.93533
3.94976
1.07829
7.4991
1.78717
8.30513
0.560081
0.754013
2.58006
37.3839
110.273
86.6462
0.153443
0.443941
0.912935
0.0963773
1.21364
0.535515
0.824008
0.939763
1.11696
0.171931
1.14389
14.4017
22.2911
141.376
0.0929902
0.525269
0.626351
0.764535
1.08058
1.21816
0.3592
2.33838
0.922918
2.63591
2.85004
0.176994
3.45681
3.41915
1.32703
0.474181
4.37057
0.31536
1.68366
1.41975
2.72042
7.11779
0.524247
7.8986
8.42139
12.5944
12.8348
0.629854
0.197034
72.6699
190.229
0.567781
1.96448
2.28096
13.3251
0.301728
0.574355
0.665394
0.781418
1.72055
2.3299
2.30815
0.433947
1.04498
1.66865
5.19
7.41187
7.95141
0.528151
0.592238
0.670448
1.75743
1.92864
2.55567
0.252565
0.298338
5.50679
0.394566
0.87815
6.59278
1.03117
0.675902
0.523323
0.35905
0.282892
1.65007
0.954705
1.17442
1.52083
0.0905717
1.32594
36.7597
0.171145
0.0954474
1.01751
21.8438
36.7781
0.0353435
1.40538
0.128005
1.02302
0.222703
1.60679
0.734112
1.89497
0.624464
0.156131
0.557939
1.24053
0.368132
0.267813
6.69866
22.6776
0.0915808
1.47169
1.91264
2.46074
4.49955
5.50356
8.48143
22.2741
0.244958
0.298481
16.998
39.9068
0.413246
0.658821
0.709384
0.482517
1.1164
2.07258
0.173325
0.331036
0.553491
0.597236
1.46263
1.44777
1.50949
1.88205
2.35713
2.54061
0.683582
0.277189
3.91713
6.15627
13.2046
1.0991
3.49851
0.758779
0.352839
0.100107
0.486267
73.6847
0.366508
0.490008
0.591168
0.646897
1.21108
1.45163
0.515535
6.37505
0.10483
0.729546
0.94517
1.17968
1.33542
1.42016
0.404264
2.4979
2.91396
0.701849
0.539538
4.1877
0.449904
0.829172
4.65267
5.55534
1.54848
6.0403
7.20639
0.500888
3.06794
92.5033
0.187056
0.19005
0.642234
0.748459
1.79171
1.86313
2.35948
2.54239
0.117551
0.331814
0.438619
7.702
8.13444
23.2117
0.586845
0.884839
1.35607
163.801
0.348879
0.437868
0.687732
0.767428
0.85621
1.45323
1.8878
1.98137
3.37648
0.298339
0.949453
0.0530158
0.885148
1.34915
0.260224
0.504422
0.076066
0.215449
0.503835
0.778116
0.97091
1.47357
1.60824
1.83741
0.228037
2.01569
2.17642
2.36607
0.144081
2.88327
3.15489
3.2688
3.35153
4.69439
4.72639
5.20607
0.223264
7.34271
0.458293
0.954236
1.10981
17.1585
18.9198
0.472268
0.494706
2.40979
1.00717
33.5354
0.819321
1.03871
1.7366
1.87832
2.25283
2.50033
3.21472
77.2428
0.684367
0.717099
0.762339
0.878869
1.03038
1.66558
0.677732
2.14167
1.35922
3.65484
0.865226
1.0239
0.658899
1.71004
0.336772
1.32832
0.188341
1.4526
11.7049
16.6053
0.935589
0.947987
1.57773
0.159117
2.65838
108.851
0.222135
0.315213
0.782299
0.826246
0.942286
1.05024
2.12108
2.64802
0.578223
5.01399
1.40242
12.8245
0.507514
0.570742
0.578693
0.681176
1.2865
1.3654
1.37979
2.47197
2.92673
3.90412
4.49085
4.7775
4.86593
149.419
191.037
207.109
0.250954
1.15818
1.21406
0.111902
1.49418
2.13145
2.08256
2.4038
0.120638
2.77566
3.81881
4.5244
3.05053
62.0167
0.730983
1.03905
2.17127
0.183597
3.12255
3.29078
0.328138
0.268931
27.2199
0.128693
0.550981
1.15488
1.87766
0.476758
0.58767
0.995275
0.526535
0.881438
2.74697
2.76869
3.39546
3.46841
3.43723
3.59574
3.71375
0.658243
7.03588
7.78064
0.692852
1.33369
0.161435
0.680338
10.2584
0.181168
0.690735
0.555834
1.97944
0.180099
0.502668
0.727554
0.40285
0.68847
1.05046
1.08717
64.3519
79.046
107.518
0.14931
0.427606
1.41402
1.46005
0.0709703
2.1705
0.515322
0.206703
0.360335
1.01869
11.3733
23.6681
0.395791
1.44026
1.38091
0.31897
0.37732
1.61425
2.08628
0.873147
0.203074
5.09718
6.96304
0.318143
0.115785
0.884046
15.1481
0.108247
1.12213
1.57517
24.1019
98.2474
162.081
0.732099
0.863035
1.44271
1.70505
0.856663
1.81321
1.89799
2.12692
3.21079
0.31313
3.92646
4.32092
0.0636534
4.63822
0.660239
0.321252
1.04964
1.52329
3.05327
0.649028
7.8287
0.492987
1.43951
15.4663
0.12015
1.86511
2.74126
0.566136
0.237374
0.826484
0.535537
2.45698
0.517913
4.91771
0.40404
0.776405
2.74053
18.5594
0.287751
0.795979
0.85912
0.863739
1.72641
1.77531
0.56667
0.561716
0.3802
1.95344
30.6146
0.289395
0.534386
0.564323
0.571716
0.719827
0.764588
1.35701
1.7112
1.91734
2.27236
2.98616
0.227545
0.477284
1.0672
0.49877
0.374291
0.750161
0.363945
0.130255
1.6896
12.1587
12.6521
0.355023
0.642001
0.797758
24.4109
41.4217
0.616904
0.657994
1.26575
1.60635
1.72019
55.2518
0.0684845
0.300598
0.971555
1.00928
1.13407
1.78434
2.00189
0.208614
0.231152
0.338687
0.626106
2.05927
0.787332
0.42903
0.249747
7.26742
0.142381
0.228861
11.0689
0.60249
1.05158
0.187752
0.510604
0.804635
0.463849
0.530246
37.7881
1.26487
1.29168
1.21815
1.50404
26.4247
88.1876
0.397684
0.421639
1.96787
0.197607
2.76215
0.278729
0.611944
212.643
0.771534
0.906317
1.61639
1.12314
0.982256
2.93598
0.519697
0.507471
0.227704
0.584297
0.316779
0.703822
4.7646
0.239274
0.615528
0.133986
0.405581
29.414
0.477916
1.52372
0.234115
0.648937
2.76744
0.15761
1.4116
0.613354
1.06586
1.79745
2.19162
2.68381
0.103773
6.48622
2.14342
35.5471
0.0315367
0.0846523
0.585261
0.725938
0.864706
1.0218
1.13377
1.7005
2.54275
0.137771
0.617673
3.92336
1.69565
2.07393
6.21544
0.282152
1.1217
34.9807
0.316144
0.817877
0.170704
1.20186
0.514058
2.15139
0.251862
1.54642
1.12904
1.10071
0.779857
2.44522
2.62812
2.98623
0.171633
3.90705
0.144165
7.03654
7.25273
7.35276
7.75871
0.214046
0.540266
0.2048
0.64185
1.02695
1.18548
1.82361
0.967601
3.09427
17.5533
0.0816373
3.32182
29.8835
0.330938
0.744915
2.35903
3.40937
0.746676
0.400905
0.518355
7.12642
0.452266
1.5002
1.99844
46.767
0.764296
0.932889
1.27469
1.46217
1.44427
0.49957
2.85265
4.42845
5.03229
0.477799
1.62302
0.438677
8.22529
0.454502
0.778938
0.0749576
0.327383
0.438664
0.575419
0.60298
0.759292
0.835896
2.25104
2.48325
1.01675
0.800119
49.8418
0.952177
0.127356
1.34615
1.8184
1.85141
0.184519
2.17088
2.24397
0.287098
0.386441
3.31774
0.651902
0.600517
14.8333
31.4586
0.350486
0.531666
0.556916
1.13154
1.76205
2.04218
2.19422
0.418684
8.17438
10.1695
118.848
156.638
0.581439
1.35423
2.97703
48.4351
0.0409312
0.2049
0.571137
0.880729
0.883437
1.0303
0.170718
0.209604
57.6448
89.784
0.184712
1.28582
1.79781
0.0981333
4.6452
0.177122
0.334087
0.483004
2.13572
69.05
0.1101
0.139154
0.251285
0.555388
0.605485
0.7602
1.17217
1.48897
1.56379
1.74809
2.14976
2.79636
7.44574
11.1559
105.161
0.21512
0.392888
0.704984
0.949514
2.35799
2.49485
2.4987
0.259125
0.645406
0.512234
2.2507
11.4293
43.5748
0.0897309
0.506706
0.672816
0.858785
1.52985
2.43372
2.53873
0.11802
0.286845
0.273115
8.68121
13.4569
112.626
0.957484
0.403954
0.836065
2.67415
2.90126
0.658528
1.4732
0.990818
0.268184
1.74871
1.89417
0.0991542
0.614282
1.33992
0.432859
0.958466
1.51889
2.1475
3.37175
5.91979
0.224476
0.265452
0.397726
1.86692
99.117
0.995016
0.802263
1.79948
1.96869
0.246419
0.512446
0.33535
2.71261
2.45598
0.136873
0.108617
0.129029
3.70298
3.96799
0.784764
0.0462329
0.288812
1.46634
5.05958
5.75395
1.40538
6.84703
10.5466
0.557626
1.59535
1.08424
2.01647
2.9457
0.789874
1.06822
1.13298
0.306892
0.623478
1.26611
2.36182
2.637
16.829
0.427628
0.655392
1.07848
1.72608
0.0978693
0.317642
1.05173
5.30985
5.46088
5.81681
14.5894
114.79
11.2337
0.57958
0.742419
0.778166
1.04264
1.19849
1.50564
1.82121
2.55776
0.326613
3.10875
3.22015
0.349721
0.392887
0.18273
19.6871
0.0953204
0.426579
1.16432
1.18277
0.100671
0.226952
0.328233
0.361458
0.560866
0.436174
5.2895
103.133
0.473662
0.48419
0.526228
0.674504
0.970441
1.15378
1.54484
1.86388
0.206433
2.9298
0.576539
2.98651
1.66969
0.981364
4.79658
0.601408
9.67055
10.5211
1.1582
1.43988
0.701429
52.4588
0.0713557
0.316414
0.544711
1.39227
1.62267
1.74387
1.94514
2.8817
0.912151
0.618558
5.63633
0.0462943
1.3081
1.26779
0.255783
33.0093
159.435
887.075
1.02209
0.413965
2.43573
0.618799
0.134029
4.6737
1.35645
5.72333
0.724333
0.394933
6.21968
0.922266
6.86557
8.71232
0.164582
0.268927
11.4474
1.41882
0.346456
0.0750792
0.0813771
0.315891
1.38312
0.984083
0.229795
2.37076
49.7465
71.8713
190.967
0.878998
0.496463
2.8301
1.31186
0.61649
1.05761
1.49895
1.64258
1.64217
1.82398
2.49433
0.285782
0.145088
3.19808
0.573048
3.42303
0.108712
0.662544
4.43004
0.0858113
1.7037
0.125592
0.148208
0.584522
0.457094
17.3797
0.495687
0.743862
1.10046
1.38532
1.59606
65.7398
0.281909
0.594041
2.44048
0.31028
129.643
0.325415
0.389848
0.76156
1.78418
0.853355
1.95821
0.171199
2.25503
2.42904
0.792749
0.85926
3.49677
3.55386
0.809385
0.388876
4.45813
0.38456
0.346271
6.74235
1.73896
0.711792
8.49014
9.48138
12.3423
13.2232
0.4235
0.298243
3.27182
40.2756
0.592608
1.01943
1.2823
0.809258
0.241426
1.9724
2.08326
2.57145
0.203639
3.44303
4.18505
4.3933
1.08314
1.10721
1.11043
0.137266
0.504357
0.200915
1.59233
0.149043
0.296772
0.284629
1.30141
0.185503
60.3638
0.873778
0.190002
1.81348
2.05252
2.31787
2.43431
2.41116
2.65871
2.72492
2.96612
0.616324
0.397223
1.0024
4.40482
0.181126
0.824183
5.72801
2.10326
0.47254
0.323576
0.86069
1.11227
0.451114
1.37751
0.665542
1.95373
2.09379
4.92757
6.23954
1.08054
1.24135
3.56074
0.473913
77.9303
169.09
0.111781
0.357776
0.177669
1.24614
1.57298
0.245687
2.14685
3.51322
3.55479
0.841596
5.40468
0.151729
0.507507
0.472699
1.187
1.25916
0.303945
2.56463
0.918882
1.07355
1.13796
1.97182
1.94957
9.64528
0.0410205
0.809875
1.07066
1.70956
1.90048
2.34442
2.46053
2.47843
2.81083
3.08463
0.652575
0.212939
0.416965
4.47356
0.754538
1.44573
0.620585
1.23568
1.05517
2.93699
11.4335
12.001
0.348708
1.07477
9.85256
0.0658691
1.46723
1.51447
0.195453
0.683863
1.27122
1.4919
0.754482
1.2827
1.88917
2.38149
3.13118
1.41618
0.0944981
0.600816
1.95975
0.42895
0.715673
1.31044
1.65921
4.2202
104.651
188.831
0.341029
1.33471
1.98247
2.65521
0.987571
0.53677
6.38218
0.113372
1.55712
0.0485622
4.1336
0.149812
1.10721
1.3612
2.01903
2.09198
2.55889
0.0908224
0.4268
0.724372
0.314037
3.78219
4.61095
0.414805
1.8671
1.85488
9.7616
13.576
17.8141
0.347392
0.704265
1.80381
9.28923
0.855896
1.82388
0.539687
0.873582
16.2159
0.221448
0.341662
23.1249
854
0.345002
0.485155
4.14749
0.260029
4.55179
1.53474
0.377034
0.69542
0.299459
0.779245
4.97119
0.0998107
0.729185
0.117882
1.40336
0.256042
0.405305
0.452848
82.4102
0.491466
1.27655
12.9316
1.47933
0.626925
16.395
30.7567
44.9799
0.324741
0.56656
1.2055
1.5384
1.82025
0.66347
2.69968
7.0216
0.228509
0.406371
1.71257
0.371742
2.13989
0.333063
4.03646
4.49891
4.464
5.03894
5.9969
6.07529
0.418486
6.3075
7.98102
8.28354
0.187066
0.699013
47.2328
92.2533
0.62917
0.825153
0.821107
1.24573
0.160381
1.70692
0.0644849
2.2287
0.354335
2.9267
2.96048
0.60616
3.83036
4.23851
0.512593
1.18695
0.0832363
0.0747168
1.02988
65.1103
240.041
0.432471
0.538017
0.618873
0.941995
1.17402
1.16192
1.87999
2.01125
0.53132
2.38234
2.6783
2.81128
0.475783
4.17439
1.40765
0.639353
6.77559
0.212644
0.853591
1.57373
0.110967
0.216066
2.19648
8.49936
0.418154
0.658557
0.809369
0.53144
0.509105
1.43511
0.555376
1.22437
2.17225
2.71314
0.0673041
0.821686
1.19887
2.14797
0.827014
0.339844
0.512004
0.747422
1.44533
0.18262
1.59638
1.79372
2.13691
2.9202
3.2595
3.35344
3.80245
1.2524
4.07163
0.464279
1.69492
5.26888
0.899204
0.372234
6.18685
33.0019
0.962467
0.371662
0.825059
1.91146
0.352516
69.1785
90.921
0.449062
2.16802
90.6042
1.38302
1.14716
0.300554
1.53259
81.3075
0.28809
1.11619
0.212395
1.53934
1.65088
0.0525623
3.30106
0.347945
0.487418
0.039752
1.97117
0.578826
1.52736
0.665253
2.01682
2.12029
28.8693
488.462
0.284819
0.668084
0.934182
1.1778
1.62949
1.64531
1.69988
1.80364
1.93112
2.12712
0.273509
0.493727
0.211254
0.644897
3.56656
3.73497
4.59936
4.87233
0.26312
6.96773
5.11896
52.4827
0.733109
0.893478
0.278671
1.47208
1.57473
1.81765
1.81625
1.95817
0.380476
0.560791
0.686985
4.1924
0.540295
1.31696
1.74929
1.04914
11.5318
0.410581
2.12078
13.3557
0.144891
0.854912
1.74538
0.654349
2.71387
67.2303
0.401906
1.18429
0.370772
1.44183
2.0637
0.259511
0.318721
0.458889
0.851118
1.02575
1.33518
2.68981
3.89147
0.35444
0.541779
0.578276
0.861701
0.267319
0.474253
0.69975
1.08088
1.24432
1.56646
1.66364
0.292006
2.73138
0.278092
0.61537
0.292974
4.09574
0.8699
0.243374
0.22173
0.732934
7.06347
7.69379
0.571261
0.28758
1.21787
0.598349
0.831079
2.11153
8.98871
0.32581
19.983
47.0228
223.454
0.32487
0.774666
1.65354
1.88032
2.29395
0.173383
0.396607
2.87835
1.33789
0.287041
5.40974
1.3797
0.743097
0.198373
1.55101
0.0741997
0.706734
9.89431
0.133504
1.09343
1.04328
1.03771
15.3344
0.872351
1.2057
1.17913
1.38841
1.56504
0.191232
0.600488
0.073134
1.85736
2.62942
0.583473
0.410312
4.17674
4.49088
5.17228
5.49136
1.33989
1.21093
8.84382
11.7583
1.63017
2.83644
8.03274
98.7093
114.874
1.37553
1.74628
2.47011
3.37372
6.49703
40.6565
191.208
